# columns ptv
# pressure GPa
# temperature K
# volume bohr^3
# nelectrons 3
# natoms 2
#    p(GPa)      T(K)   V(bohr^3) 
      0.0000       0.00   110.5957
     20.0000       0.00    93.1315
     40.0000       0.00    84.0087
     60.0000       0.00    77.8481
     80.0000       0.00    73.2225
    100.0000       0.00    69.5387
    120.0000       0.00    66.4929
    140.0000       0.00    63.9081
    160.0000       0.00    61.6716
    180.0000       0.00    59.7072
    200.0000       0.00    57.9607
    220.0000       0.00    56.3920
    240.0000       0.00    54.9710
    260.0000       0.00    53.6744
    280.0000       0.00    52.4838
    300.0000       0.00    51.3846
    320.0000       0.00    50.3649
    340.0000       0.00    49.4150
    360.0000       0.00    48.5268
    380.0000       0.00    47.6935
    400.0000       0.00    46.9094
    420.0000       0.00    46.1696
    440.0000       0.00    45.4697
    460.0000       0.00    44.8061
    480.0000       0.00    44.1755
    500.0000       0.00    43.5751


      0.0000      10.00   110.5957
     20.0000      10.00    93.1315
     40.0000      10.00    84.0087
     60.0000      10.00    77.8481
     80.0000      10.00    73.2225
    100.0000      10.00    69.5387
    120.0000      10.00    66.4929
    140.0000      10.00    63.9081
    160.0000      10.00    61.6716
    180.0000      10.00    59.7072
    200.0000      10.00    57.9607
    220.0000      10.00    56.3920
    240.0000      10.00    54.9710
    260.0000      10.00    53.6744
    280.0000      10.00    52.4838
    300.0000      10.00    51.3846
    320.0000      10.00    50.3649
    340.0000      10.00    49.4150
    360.0000      10.00    48.5268
    380.0000      10.00    47.6935
    400.0000      10.00    46.9094
    420.0000      10.00    46.1696
    440.0000      10.00    45.4697
    460.0000      10.00    44.8061
    480.0000      10.00    44.1755
    500.0000      10.00    43.5751


      0.0000      20.00   110.5958
     20.0000      20.00    93.1316
     40.0000      20.00    84.0088
     60.0000      20.00    77.8481
     80.0000      20.00    73.2225
    100.0000      20.00    69.5387
    120.0000      20.00    66.4929
    140.0000      20.00    63.9081
    160.0000      20.00    61.6716
    180.0000      20.00    59.7072
    200.0000      20.00    57.9607
    220.0000      20.00    56.3920
    240.0000      20.00    54.9710
    260.0000      20.00    53.6744
    280.0000      20.00    52.4838
    300.0000      20.00    51.3846
    320.0000      20.00    50.3650
    340.0000      20.00    49.4150
    360.0000      20.00    48.5268
    380.0000      20.00    47.6935
    400.0000      20.00    46.9094
    420.0000      20.00    46.1696
    440.0000      20.00    45.4697
    460.0000      20.00    44.8061
    480.0000      20.00    44.1755
    500.0000      20.00    43.5751


      0.0000      30.00   110.5968
     20.0000      30.00    93.1317
     40.0000      30.00    84.0089
     60.0000      30.00    77.8482
     80.0000      30.00    73.2226
    100.0000      30.00    69.5387
    120.0000      30.00    66.4929
    140.0000      30.00    63.9081
    160.0000      30.00    61.6716
    180.0000      30.00    59.7072
    200.0000      30.00    57.9606
    220.0000      30.00    56.3920
    240.0000      30.00    54.9710
    260.0000      30.00    53.6744
    280.0000      30.00    52.4838
    300.0000      30.00    51.3846
    320.0000      30.00    50.3650
    340.0000      30.00    49.4151
    360.0000      30.00    48.5268
    380.0000      30.00    47.6936
    400.0000      30.00    46.9095
    420.0000      30.00    46.1696
    440.0000      30.00    45.4697
    460.0000      30.00    44.8061
    480.0000      30.00    44.1755
    500.0000      30.00    43.5751


      0.0000      40.00   110.6007
     20.0000      40.00    93.1322
     40.0000      40.00    84.0091
     60.0000      40.00    77.8484
     80.0000      40.00    73.2227
    100.0000      40.00    69.5388
    120.0000      40.00    66.4929
    140.0000      40.00    63.9081
    160.0000      40.00    61.6716
    180.0000      40.00    59.7072
    200.0000      40.00    57.9606
    220.0000      40.00    56.3919
    240.0000      40.00    54.9710
    260.0000      40.00    53.6744
    280.0000      40.00    52.4838
    300.0000      40.00    51.3846
    320.0000      40.00    50.3650
    340.0000      40.00    49.4151
    360.0000      40.00    48.5269
    380.0000      40.00    47.6936
    400.0000      40.00    46.9095
    420.0000      40.00    46.1696
    440.0000      40.00    45.4698
    460.0000      40.00    44.8061
    480.0000      40.00    44.1755
    500.0000      40.00    43.5750


      0.0000      50.00   110.6096
     20.0000      50.00    93.1334
     40.0000      50.00    84.0095
     60.0000      50.00    77.8486
     80.0000      50.00    73.2228
    100.0000      50.00    69.5389
    120.0000      50.00    66.4930
    140.0000      50.00    63.9081
    160.0000      50.00    61.6716
    180.0000      50.00    59.7072
    200.0000      50.00    57.9606
    220.0000      50.00    56.3919
    240.0000      50.00    54.9710
    260.0000      50.00    53.6744
    280.0000      50.00    52.4838
    300.0000      50.00    51.3846
    320.0000      50.00    50.3650
    340.0000      50.00    49.4151
    360.0000      50.00    48.5269
    380.0000      50.00    47.6936
    400.0000      50.00    46.9095
    420.0000      50.00    46.1697
    440.0000      50.00    45.4698
    460.0000      50.00    44.8062
    480.0000      50.00    44.1755
    500.0000      50.00    43.5750


      0.0000      60.00   110.6244
     20.0000      60.00    93.1356
     40.0000      60.00    84.0103
     60.0000      60.00    77.8490
     80.0000      60.00    73.2231
    100.0000      60.00    69.5391
    120.0000      60.00    66.4931
    140.0000      60.00    63.9082
    160.0000      60.00    61.6716
    180.0000      60.00    59.7072
    200.0000      60.00    57.9606
    220.0000      60.00    56.3920
    240.0000      60.00    54.9710
    260.0000      60.00    53.6744
    280.0000      60.00    52.4838
    300.0000      60.00    51.3846
    320.0000      60.00    50.3650
    340.0000      60.00    49.4151
    360.0000      60.00    48.5269
    380.0000      60.00    47.6936
    400.0000      60.00    46.9096
    420.0000      60.00    46.1697
    440.0000      60.00    45.4698
    460.0000      60.00    44.8062
    480.0000      60.00    44.1755
    500.0000      60.00    43.5750


      0.0000      70.00   110.6456
     20.0000      70.00    93.1393
     40.0000      70.00    84.0116
     60.0000      70.00    77.8497
     80.0000      70.00    73.2236
    100.0000      70.00    69.5394
    120.0000      70.00    66.4933
    140.0000      70.00    63.9083
    160.0000      70.00    61.6718
    180.0000      70.00    59.7073
    200.0000      70.00    57.9607
    220.0000      70.00    56.3920
    240.0000      70.00    54.9710
    260.0000      70.00    53.6744
    280.0000      70.00    52.4838
    300.0000      70.00    51.3846
    320.0000      70.00    50.3650
    340.0000      70.00    49.4151
    360.0000      70.00    48.5269
    380.0000      70.00    47.6937
    400.0000      70.00    46.9096
    420.0000      70.00    46.1698
    440.0000      70.00    45.4699
    460.0000      70.00    44.8062
    480.0000      70.00    44.1755
    500.0000      70.00    43.5750


      0.0000      80.00   110.6730
     20.0000      80.00    93.1446
     40.0000      80.00    84.0136
     60.0000      80.00    77.8508
     80.0000      80.00    73.2243
    100.0000      80.00    69.5399
    120.0000      80.00    66.4937
    140.0000      80.00    63.9086
    160.0000      80.00    61.6720
    180.0000      80.00    59.7075
    200.0000      80.00    57.9608
    220.0000      80.00    56.3921
    240.0000      80.00    54.9711
    260.0000      80.00    53.6745
    280.0000      80.00    52.4839
    300.0000      80.00    51.3847
    320.0000      80.00    50.3650
    340.0000      80.00    49.4151
    360.0000      80.00    48.5269
    380.0000      80.00    47.6937
    400.0000      80.00    46.9096
    420.0000      80.00    46.1698
    440.0000      80.00    45.4699
    460.0000      80.00    44.8063
    480.0000      80.00    44.1755
    500.0000      80.00    43.5749


      0.0000      90.00   110.7061
     20.0000      90.00    93.1516
     40.0000      90.00    84.0164
     60.0000      90.00    77.8523
     80.0000      90.00    73.2252
    100.0000      90.00    69.5406
    120.0000      90.00    66.4942
    140.0000      90.00    63.9089
    160.0000      90.00    61.6723
    180.0000      90.00    59.7077
    200.0000      90.00    57.9610
    220.0000      90.00    56.3923
    240.0000      90.00    54.9712
    260.0000      90.00    53.6746
    280.0000      90.00    52.4839
    300.0000      90.00    51.3847
    320.0000      90.00    50.3650
    340.0000      90.00    49.4151
    360.0000      90.00    48.5269
    380.0000      90.00    47.6937
    400.0000      90.00    46.9096
    420.0000      90.00    46.1698
    440.0000      90.00    45.4700
    460.0000      90.00    44.8063
    480.0000      90.00    44.1755
    500.0000      90.00    43.5749


      0.0000     100.00   110.7445
     20.0000     100.00    93.1603
     40.0000     100.00    84.0200
     60.0000     100.00    77.8543
     80.0000     100.00    73.2266
    100.0000     100.00    69.5415
    120.0000     100.00    66.4949
    140.0000     100.00    63.9095
    160.0000     100.00    61.6727
    180.0000     100.00    59.7081
    200.0000     100.00    57.9613
    220.0000     100.00    56.3925
    240.0000     100.00    54.9714
    260.0000     100.00    53.6747
    280.0000     100.00    52.4840
    300.0000     100.00    51.3848
    320.0000     100.00    50.3650
    340.0000     100.00    49.4151
    360.0000     100.00    48.5269
    380.0000     100.00    47.6937
    400.0000     100.00    46.9097
    420.0000     100.00    46.1699
    440.0000     100.00    45.4700
    460.0000     100.00    44.8063
    480.0000     100.00    44.1756
    500.0000     100.00    43.5749


      0.0000     110.00   110.7874
     20.0000     110.00    93.1707
     40.0000     110.00    84.0245
     60.0000     110.00    77.8569
     80.0000     110.00    73.2283
    100.0000     110.00    69.5428
    120.0000     110.00    66.4958
    140.0000     110.00    63.9102
    160.0000     110.00    61.6733
    180.0000     110.00    59.7085
    200.0000     110.00    57.9617
    220.0000     110.00    56.3928
    240.0000     110.00    54.9717
    260.0000     110.00    53.6749
    280.0000     110.00    52.4842
    300.0000     110.00    51.3849
    320.0000     110.00    50.3651
    340.0000     110.00    49.4152
    360.0000     110.00    48.5270
    380.0000     110.00    47.6938
    400.0000     110.00    46.9097
    420.0000     110.00    46.1699
    440.0000     110.00    45.4700
    460.0000     110.00    44.8064
    480.0000     110.00    44.1756
    500.0000     110.00    43.5749


      0.0000     120.00   110.8345
     20.0000     120.00    93.1826
     40.0000     120.00    84.0298
     60.0000     120.00    77.8600
     80.0000     120.00    73.2304
    100.0000     120.00    69.5443
    120.0000     120.00    66.4970
    140.0000     120.00    63.9111
    160.0000     120.00    61.6740
    180.0000     120.00    59.7091
    200.0000     120.00    57.9622
    220.0000     120.00    56.3932
    240.0000     120.00    54.9720
    260.0000     120.00    53.6752
    280.0000     120.00    52.4844
    300.0000     120.00    51.3850
    320.0000     120.00    50.3652
    340.0000     120.00    49.4152
    360.0000     120.00    48.5270
    380.0000     120.00    47.6938
    400.0000     120.00    46.9098
    420.0000     120.00    46.1700
    440.0000     120.00    45.4701
    460.0000     120.00    44.8064
    480.0000     120.00    44.1756
    500.0000     120.00    43.5749


      0.0000     130.00   110.8852
     20.0000     130.00    93.1959
     40.0000     130.00    84.0360
     60.0000     130.00    77.8637
     80.0000     130.00    73.2329
    100.0000     130.00    69.5462
    120.0000     130.00    66.4984
    140.0000     130.00    63.9122
    160.0000     130.00    61.6749
    180.0000     130.00    59.7099
    200.0000     130.00    57.9628
    220.0000     130.00    56.3937
    240.0000     130.00    54.9724
    260.0000     130.00    53.6755
    280.0000     130.00    52.4847
    300.0000     130.00    51.3852
    320.0000     130.00    50.3654
    340.0000     130.00    49.4154
    360.0000     130.00    48.5271
    380.0000     130.00    47.6939
    400.0000     130.00    46.9099
    420.0000     130.00    46.1701
    440.0000     130.00    45.4702
    460.0000     130.00    44.8065
    480.0000     130.00    44.1757
    500.0000     130.00    43.5749


      0.0000     140.00   110.9391
     20.0000     140.00    93.2105
     40.0000     140.00    84.0429
     60.0000     140.00    77.8679
     80.0000     140.00    73.2359
    100.0000     140.00    69.5483
    120.0000     140.00    66.5000
    140.0000     140.00    63.9135
    160.0000     140.00    61.6759
    180.0000     140.00    59.7107
    200.0000     140.00    57.9635
    220.0000     140.00    56.3944
    240.0000     140.00    54.9729
    260.0000     140.00    53.6759
    280.0000     140.00    52.4850
    300.0000     140.00    51.3855
    320.0000     140.00    50.3656
    340.0000     140.00    49.4155
    360.0000     140.00    48.5273
    380.0000     140.00    47.6940
    400.0000     140.00    46.9100
    420.0000     140.00    46.1702
    440.0000     140.00    45.4703
    460.0000     140.00    44.8066
    480.0000     140.00    44.1757
    500.0000     140.00    43.5750


      0.0000     150.00   110.9958
     20.0000     150.00    93.2264
     40.0000     150.00    84.0506
     60.0000     150.00    77.8726
     80.0000     150.00    73.2392
    100.0000     150.00    69.5508
    120.0000     150.00    66.5020
    140.0000     150.00    63.9150
    160.0000     150.00    61.6772
    180.0000     150.00    59.7117
    200.0000     150.00    57.9644
    220.0000     150.00    56.3951
    240.0000     150.00    54.9735
    260.0000     150.00    53.6764
    280.0000     150.00    52.4854
    300.0000     150.00    51.3858
    320.0000     150.00    50.3658
    340.0000     150.00    49.4158
    360.0000     150.00    48.5275
    380.0000     150.00    47.6942
    400.0000     150.00    46.9102
    420.0000     150.00    46.1704
    440.0000     150.00    45.4705
    460.0000     150.00    44.8067
    480.0000     150.00    44.1759
    500.0000     150.00    43.5750


      0.0000     160.00   111.0550
     20.0000     160.00    93.2434
     40.0000     160.00    84.0589
     60.0000     160.00    77.8779
     80.0000     160.00    73.2429
    100.0000     160.00    69.5536
    120.0000     160.00    66.5041
    140.0000     160.00    63.9168
    160.0000     160.00    61.6786
    180.0000     160.00    59.7129
    200.0000     160.00    57.9654
    220.0000     160.00    56.3959
    240.0000     160.00    54.9742
    260.0000     160.00    53.6770
    280.0000     160.00    52.4859
    300.0000     160.00    51.3862
    320.0000     160.00    50.3662
    340.0000     160.00    49.4160
    360.0000     160.00    48.5277
    380.0000     160.00    47.6944
    400.0000     160.00    46.9104
    420.0000     160.00    46.1706
    440.0000     160.00    45.4707
    460.0000     160.00    44.8069
    480.0000     160.00    44.1760
    500.0000     160.00    43.5751


      0.0000     170.00   111.1164
     20.0000     170.00    93.2614
     40.0000     170.00    84.0680
     60.0000     170.00    77.8836
     80.0000     170.00    73.2470
    100.0000     170.00    69.5567
    120.0000     170.00    66.5066
    140.0000     170.00    63.9187
    160.0000     170.00    61.6801
    180.0000     170.00    59.7142
    200.0000     170.00    57.9665
    220.0000     170.00    56.3969
    240.0000     170.00    54.9750
    260.0000     170.00    53.6777
    280.0000     170.00    52.4865
    300.0000     170.00    51.3867
    320.0000     170.00    50.3666
    340.0000     170.00    49.4164
    360.0000     170.00    48.5280
    380.0000     170.00    47.6947
    400.0000     170.00    46.9106
    420.0000     170.00    46.1708
    440.0000     170.00    45.4709
    460.0000     170.00    44.8071
    480.0000     170.00    44.1762
    500.0000     170.00    43.5753


      0.0000     180.00   111.1799
     20.0000     180.00    93.2803
     40.0000     180.00    84.0776
     60.0000     180.00    77.8898
     80.0000     180.00    73.2514
    100.0000     180.00    69.5601
    120.0000     180.00    66.5092
    140.0000     180.00    63.9208
    160.0000     180.00    61.6819
    180.0000     180.00    59.7157
    200.0000     180.00    57.9677
    220.0000     180.00    56.3979
    240.0000     180.00    54.9760
    260.0000     180.00    53.6785
    280.0000     180.00    52.4871
    300.0000     180.00    51.3873
    320.0000     180.00    50.3670
    340.0000     180.00    49.4168
    360.0000     180.00    48.5284
    380.0000     180.00    47.6950
    400.0000     180.00    46.9109
    420.0000     180.00    46.1711
    440.0000     180.00    45.4711
    460.0000     180.00    44.8073
    480.0000     180.00    44.1764
    500.0000     180.00    43.5754


      0.0000     190.00   111.2451
     20.0000     190.00    93.3000
     40.0000     190.00    84.0877
     60.0000     190.00    77.8963
     80.0000     190.00    73.2562
    100.0000     190.00    69.5637
    120.0000     190.00    66.5121
    140.0000     190.00    63.9232
    160.0000     190.00    61.6838
    180.0000     190.00    59.7173
    200.0000     190.00    57.9691
    220.0000     190.00    56.3991
    240.0000     190.00    54.9770
    260.0000     190.00    53.6793
    280.0000     190.00    52.4878
    300.0000     190.00    51.3879
    320.0000     190.00    50.3676
    340.0000     190.00    49.4172
    360.0000     190.00    48.5288
    380.0000     190.00    47.6954
    400.0000     190.00    46.9113
    420.0000     190.00    46.1714
    440.0000     190.00    45.4714
    460.0000     190.00    44.8076
    480.0000     190.00    44.1766
    500.0000     190.00    43.5756


      0.0000     200.00   111.3120
     20.0000     200.00    93.3205
     40.0000     200.00    84.0984
     60.0000     200.00    77.9033
     80.0000     200.00    73.2613
    100.0000     200.00    69.5677
    120.0000     200.00    66.5152
    140.0000     200.00    63.9257
    160.0000     200.00    61.6859
    180.0000     200.00    59.7191
    200.0000     200.00    57.9706
    220.0000     200.00    56.4004
    240.0000     200.00    54.9781
    260.0000     200.00    53.6803
    280.0000     200.00    52.4887
    300.0000     200.00    51.3886
    320.0000     200.00    50.3682
    340.0000     200.00    49.4178
    360.0000     200.00    48.5293
    380.0000     200.00    47.6958
    400.0000     200.00    46.9117
    420.0000     200.00    46.1718
    440.0000     200.00    45.4718
    460.0000     200.00    44.8079
    480.0000     200.00    44.1769
    500.0000     200.00    43.5759


      0.0000     210.00   111.3804
     20.0000     210.00    93.3416
     40.0000     210.00    84.1095
     60.0000     210.00    77.9106
     80.0000     210.00    73.2667
    100.0000     210.00    69.5718
    120.0000     210.00    66.5185
    140.0000     210.00    63.9284
    160.0000     210.00    61.6881
    180.0000     210.00    59.7209
    200.0000     210.00    57.9722
    220.0000     210.00    56.4018
    240.0000     210.00    54.9793
    260.0000     210.00    53.6813
    280.0000     210.00    52.4896
    300.0000     210.00    51.3894
    320.0000     210.00    50.3689
    340.0000     210.00    49.4184
    360.0000     210.00    48.5298
    380.0000     210.00    47.6963
    400.0000     210.00    46.9121
    420.0000     210.00    46.1722
    440.0000     210.00    45.4722
    460.0000     210.00    44.8083
    480.0000     210.00    44.1772
    500.0000     210.00    43.5761


      0.0000     220.00   111.4502
     20.0000     220.00    93.3634
     40.0000     220.00    84.1211
     60.0000     220.00    77.9183
     80.0000     220.00    73.2723
    100.0000     220.00    69.5762
    120.0000     220.00    66.5220
    140.0000     220.00    63.9313
    160.0000     220.00    61.6905
    180.0000     220.00    59.7230
    200.0000     220.00    57.9739
    220.0000     220.00    56.4033
    240.0000     220.00    54.9806
    260.0000     220.00    53.6825
    280.0000     220.00    52.4905
    300.0000     220.00    51.3902
    320.0000     220.00    50.3696
    340.0000     220.00    49.4190
    360.0000     220.00    48.5304
    380.0000     220.00    47.6968
    400.0000     220.00    46.9126
    420.0000     220.00    46.1727
    440.0000     220.00    45.4726
    460.0000     220.00    44.8087
    480.0000     220.00    44.1775
    500.0000     220.00    43.5764


      0.0000     230.00   111.5213
     20.0000     230.00    93.3858
     40.0000     230.00    84.1331
     60.0000     230.00    77.9263
     80.0000     230.00    73.2782
    100.0000     230.00    69.5808
    120.0000     230.00    66.5257
    140.0000     230.00    63.9343
    160.0000     230.00    61.6930
    180.0000     230.00    59.7251
    200.0000     230.00    57.9758
    220.0000     230.00    56.4049
    240.0000     230.00    54.9820
    260.0000     230.00    53.6837
    280.0000     230.00    52.4916
    300.0000     230.00    51.3911
    320.0000     230.00    50.3704
    340.0000     230.00    49.4197
    360.0000     230.00    48.5310
    380.0000     230.00    47.6974
    400.0000     230.00    46.9132
    420.0000     230.00    46.1732
    440.0000     230.00    45.4731
    460.0000     230.00    44.8091
    480.0000     230.00    44.1779
    500.0000     230.00    43.5768


      0.0000     240.00   111.5935
     20.0000     240.00    93.4086
     40.0000     240.00    84.1454
     60.0000     240.00    77.9345
     80.0000     240.00    73.2844
    100.0000     240.00    69.5857
    120.0000     240.00    66.5296
    140.0000     240.00    63.9375
    160.0000     240.00    61.6957
    180.0000     240.00    59.7274
    200.0000     240.00    57.9777
    220.0000     240.00    56.4066
    240.0000     240.00    54.9834
    260.0000     240.00    53.6850
    280.0000     240.00    52.4927
    300.0000     240.00    51.3921
    320.0000     240.00    50.3713
    340.0000     240.00    49.4205
    360.0000     240.00    48.5317
    380.0000     240.00    47.6981
    400.0000     240.00    46.9138
    420.0000     240.00    46.1737
    440.0000     240.00    45.4736
    460.0000     240.00    44.8096
    480.0000     240.00    44.1784
    500.0000     240.00    43.5771


      0.0000     250.00   111.6669
     20.0000     250.00    93.4320
     40.0000     250.00    84.1581
     60.0000     250.00    77.9430
     80.0000     250.00    73.2908
    100.0000     250.00    69.5907
    120.0000     250.00    66.5337
    140.0000     250.00    63.9408
    160.0000     250.00    61.6985
    180.0000     250.00    59.7297
    200.0000     250.00    57.9798
    220.0000     250.00    56.4084
    240.0000     250.00    54.9850
    260.0000     250.00    53.6864
    280.0000     250.00    52.4940
    300.0000     250.00    51.3932
    320.0000     250.00    50.3722
    340.0000     250.00    49.4214
    360.0000     250.00    48.5325
    380.0000     250.00    47.6988
    400.0000     250.00    46.9144
    420.0000     250.00    46.1743
    440.0000     250.00    45.4742
    460.0000     250.00    44.8101
    480.0000     250.00    44.1788
    500.0000     250.00    43.5775


      0.0000     260.00   111.7414
     20.0000     260.00    93.4558
     40.0000     260.00    84.1710
     60.0000     260.00    77.9518
     80.0000     260.00    73.2973
    100.0000     260.00    69.5959
    120.0000     260.00    66.5379
    140.0000     260.00    63.9443
    160.0000     260.00    61.7014
    180.0000     260.00    59.7322
    200.0000     260.00    57.9819
    220.0000     260.00    56.4102
    240.0000     260.00    54.9867
    260.0000     260.00    53.6878
    280.0000     260.00    52.4952
    300.0000     260.00    51.3943
    320.0000     260.00    50.3733
    340.0000     260.00    49.4223
    360.0000     260.00    48.5333
    380.0000     260.00    47.6995
    400.0000     260.00    46.9151
    420.0000     260.00    46.1750
    440.0000     260.00    45.4748
    460.0000     260.00    44.8107
    480.0000     260.00    44.1793
    500.0000     260.00    43.5780


      0.0000     270.00   111.8168
     20.0000     270.00    93.4800
     40.0000     270.00    84.1843
     60.0000     270.00    77.9608
     80.0000     270.00    73.3041
    100.0000     270.00    69.6012
    120.0000     270.00    66.5422
    140.0000     270.00    63.9479
    160.0000     270.00    61.7044
    180.0000     270.00    59.7348
    200.0000     270.00    57.9842
    220.0000     270.00    56.4122
    240.0000     270.00    54.9884
    260.0000     270.00    53.6894
    280.0000     270.00    52.4966
    300.0000     270.00    51.3955
    320.0000     270.00    50.3743
    340.0000     270.00    49.4232
    360.0000     270.00    48.5342
    380.0000     270.00    47.7003
    400.0000     270.00    46.9159
    420.0000     270.00    46.1757
    440.0000     270.00    45.4754
    460.0000     270.00    44.8113
    480.0000     270.00    44.1799
    500.0000     270.00    43.5785


      0.0000     280.00   111.8932
     20.0000     280.00    93.5045
     40.0000     280.00    84.1978
     60.0000     280.00    77.9700
     80.0000     280.00    73.3111
    100.0000     280.00    69.6067
    120.0000     280.00    66.5467
    140.0000     280.00    63.9516
    160.0000     280.00    61.7076
    180.0000     280.00    59.7375
    200.0000     280.00    57.9865
    220.0000     280.00    56.4143
    240.0000     280.00    54.9902
    260.0000     280.00    53.6910
    280.0000     280.00    52.4980
    300.0000     280.00    51.3968
    320.0000     280.00    50.3755
    340.0000     280.00    49.4242
    360.0000     280.00    48.5351
    380.0000     280.00    47.7012
    400.0000     280.00    46.9167
    420.0000     280.00    46.1764
    440.0000     280.00    45.4761
    460.0000     280.00    44.8119
    480.0000     280.00    44.1805
    500.0000     280.00    43.5790


      0.0000     290.00   111.9705
     20.0000     290.00    93.5295
     40.0000     290.00    84.2115
     60.0000     290.00    77.9794
     80.0000     290.00    73.3182
    100.0000     290.00    69.6124
    120.0000     290.00    66.5513
    140.0000     290.00    63.9554
    160.0000     290.00    61.7108
    180.0000     290.00    59.7403
    200.0000     290.00    57.9890
    220.0000     290.00    56.4164
    240.0000     290.00    54.9921
    260.0000     290.00    53.6926
    280.0000     290.00    52.4995
    300.0000     290.00    51.3981
    320.0000     290.00    50.3766
    340.0000     290.00    49.4253
    360.0000     290.00    48.5361
    380.0000     290.00    47.7021
    400.0000     290.00    46.9175
    420.0000     290.00    46.1772
    440.0000     290.00    45.4769
    460.0000     290.00    44.8126
    480.0000     290.00    44.1811
    500.0000     290.00    43.5795


      0.0000     300.00   112.0486
     20.0000     300.00    93.5547
     40.0000     300.00    84.2255
     60.0000     300.00    77.9890
     80.0000     300.00    73.3255
    100.0000     300.00    69.6182
    120.0000     300.00    66.5560
    140.0000     300.00    63.9594
    160.0000     300.00    61.7142
    180.0000     300.00    59.7432
    200.0000     300.00    57.9915
    220.0000     300.00    56.4186
    240.0000     300.00    54.9941
    260.0000     300.00    53.6944
    280.0000     300.00    52.5011
    300.0000     300.00    51.3995
    320.0000     300.00    50.3779
    340.0000     300.00    49.4264
    360.0000     300.00    48.5371
    380.0000     300.00    47.7030
    400.0000     300.00    46.9184
    420.0000     300.00    46.1780
    440.0000     300.00    45.4776
    460.0000     300.00    44.8133
    480.0000     300.00    44.1817
    500.0000     300.00    43.5801


      0.0000     310.00   112.1277
     20.0000     310.00    93.5802
     40.0000     310.00    84.2397
     60.0000     310.00    77.9988
     80.0000     310.00    73.3329
    100.0000     310.00    69.6241
    120.0000     310.00    66.5609
    140.0000     310.00    63.9634
    160.0000     310.00    61.7176
    180.0000     310.00    59.7462
    200.0000     310.00    57.9941
    220.0000     310.00    56.4209
    240.0000     310.00    54.9961
    260.0000     310.00    53.6962
    280.0000     310.00    52.5027
    300.0000     310.00    51.4010
    320.0000     310.00    50.3792
    340.0000     310.00    49.4276
    360.0000     310.00    48.5382
    380.0000     310.00    47.7040
    400.0000     310.00    46.9193
    420.0000     310.00    46.1789
    440.0000     310.00    45.4784
    460.0000     310.00    44.8141
    480.0000     310.00    44.1824
    500.0000     310.00    43.5807


      0.0000     320.00   112.2075
     20.0000     320.00    93.6061
     40.0000     320.00    84.2541
     60.0000     320.00    78.0087
     80.0000     320.00    73.3405
    100.0000     320.00    69.6302
    120.0000     320.00    66.5658
    140.0000     320.00    63.9675
    160.0000     320.00    61.7211
    180.0000     320.00    59.7492
    200.0000     320.00    57.9967
    220.0000     320.00    56.4233
    240.0000     320.00    54.9982
    260.0000     320.00    53.6981
    280.0000     320.00    52.5044
    300.0000     320.00    51.4025
    320.0000     320.00    50.3805
    340.0000     320.00    49.4288
    360.0000     320.00    48.5393
    380.0000     320.00    47.7051
    400.0000     320.00    46.9203
    420.0000     320.00    46.1798
    440.0000     320.00    45.4793
    460.0000     320.00    44.8148
    480.0000     320.00    44.1831
    500.0000     320.00    43.5814


      0.0000     330.00   112.2881
     20.0000     330.00    93.6322
     40.0000     330.00    84.2687
     60.0000     330.00    78.0188
     80.0000     330.00    73.3482
    100.0000     330.00    69.6363
    120.0000     330.00    66.5709
    140.0000     330.00    63.9718
    160.0000     330.00    61.7247
    180.0000     330.00    59.7523
    200.0000     330.00    57.9995
    220.0000     330.00    56.4257
    240.0000     330.00    55.0004
    260.0000     330.00    53.7000
    280.0000     330.00    52.5061
    300.0000     330.00    51.4040
    320.0000     330.00    50.3819
    340.0000     330.00    49.4301
    360.0000     330.00    48.5405
    380.0000     330.00    47.7061
    400.0000     330.00    46.9213
    420.0000     330.00    46.1808
    440.0000     330.00    45.4802
    460.0000     330.00    44.8157
    480.0000     330.00    44.1839
    500.0000     330.00    43.5820


      0.0000     340.00   112.3695
     20.0000     340.00    93.6585
     40.0000     340.00    84.2834
     60.0000     340.00    78.0290
     80.0000     340.00    73.3560
    100.0000     340.00    69.6426
    120.0000     340.00    66.5761
    140.0000     340.00    63.9761
    160.0000     340.00    61.7284
    180.0000     340.00    59.7555
    200.0000     340.00    58.0023
    220.0000     340.00    56.4282
    240.0000     340.00    55.0026
    260.0000     340.00    53.7020
    280.0000     340.00    52.5079
    300.0000     340.00    51.4056
    320.0000     340.00    50.3834
    340.0000     340.00    49.4314
    360.0000     340.00    48.5417
    380.0000     340.00    47.7073
    400.0000     340.00    46.9223
    420.0000     340.00    46.1817
    440.0000     340.00    45.4811
    460.0000     340.00    44.8165
    480.0000     340.00    44.1847
    500.0000     340.00    43.5827


      0.0000     350.00   112.4516
     20.0000     350.00    93.6851
     40.0000     350.00    84.2983
     60.0000     350.00    78.0393
     80.0000     350.00    73.3639
    100.0000     350.00    69.6490
    120.0000     350.00    66.5813
    140.0000     350.00    63.9805
    160.0000     350.00    61.7322
    180.0000     350.00    59.7588
    200.0000     350.00    58.0051
    220.0000     350.00    56.4307
    240.0000     350.00    55.0049
    260.0000     350.00    53.7040
    280.0000     350.00    52.5097
    300.0000     350.00    51.4073
    320.0000     350.00    50.3849
    340.0000     350.00    49.4328
    360.0000     350.00    48.5429
    380.0000     350.00    47.7084
    400.0000     350.00    46.9234
    420.0000     350.00    46.1828
    440.0000     350.00    45.4820
    460.0000     350.00    44.8174
    480.0000     350.00    44.1855
    500.0000     350.00    43.5835


      0.0000     360.00   112.5346
     20.0000     360.00    93.7119
     40.0000     360.00    84.3134
     60.0000     360.00    78.0498
     80.0000     360.00    73.3720
    100.0000     360.00    69.6554
    120.0000     360.00    66.5866
    140.0000     360.00    63.9850
    160.0000     360.00    61.7360
    180.0000     360.00    59.7621
    200.0000     360.00    58.0081
    220.0000     360.00    56.4333
    240.0000     360.00    55.0072
    260.0000     360.00    53.7061
    280.0000     360.00    52.5116
    300.0000     360.00    51.4090
    320.0000     360.00    50.3864
    340.0000     360.00    49.4342
    360.0000     360.00    48.5442
    380.0000     360.00    47.7096
    400.0000     360.00    46.9245
    420.0000     360.00    46.1838
    440.0000     360.00    45.4830
    460.0000     360.00    44.8183
    480.0000     360.00    44.1863
    500.0000     360.00    43.5842


      0.0000     370.00   112.6182
     20.0000     370.00    93.7390
     40.0000     370.00    84.3286
     60.0000     370.00    78.0604
     80.0000     370.00    73.3801
    100.0000     370.00    69.6620
    120.0000     370.00    66.5920
    140.0000     370.00    63.9895
    160.0000     370.00    61.7399
    180.0000     370.00    59.7655
    200.0000     370.00    58.0111
    220.0000     370.00    56.4360
    240.0000     370.00    55.0096
    260.0000     370.00    53.7082
    280.0000     370.00    52.5135
    300.0000     370.00    51.4107
    320.0000     370.00    50.3880
    340.0000     370.00    49.4356
    360.0000     370.00    48.5455
    380.0000     370.00    47.7108
    400.0000     370.00    46.9257
    420.0000     370.00    46.1849
    440.0000     370.00    45.4840
    460.0000     370.00    44.8193
    480.0000     370.00    44.1872
    500.0000     370.00    43.5850


      0.0000     380.00   112.7025
     20.0000     380.00    93.7662
     40.0000     380.00    84.3439
     60.0000     380.00    78.0711
     80.0000     380.00    73.3883
    100.0000     380.00    69.6686
    120.0000     380.00    66.5975
    140.0000     380.00    63.9941
    160.0000     380.00    61.7438
    180.0000     380.00    59.7689
    200.0000     380.00    58.0141
    220.0000     380.00    56.4387
    240.0000     380.00    55.0120
    260.0000     380.00    53.7104
    280.0000     380.00    52.5155
    300.0000     380.00    51.4125
    320.0000     380.00    50.3896
    340.0000     380.00    49.4371
    360.0000     380.00    48.5469
    380.0000     380.00    47.7121
    400.0000     380.00    46.9268
    420.0000     380.00    46.1860
    440.0000     380.00    45.4851
    460.0000     380.00    44.8202
    480.0000     380.00    44.1881
    500.0000     380.00    43.5858


      0.0000     390.00   112.7876
     20.0000     390.00    93.7936
     40.0000     390.00    84.3594
     60.0000     390.00    78.0818
     80.0000     390.00    73.3966
    100.0000     390.00    69.6753
    120.0000     390.00    66.6030
    140.0000     390.00    63.9988
    160.0000     390.00    61.7479
    180.0000     390.00    59.7724
    200.0000     390.00    58.0172
    220.0000     390.00    56.4414
    240.0000     390.00    55.0145
    260.0000     390.00    53.7127
    280.0000     390.00    52.5175
    300.0000     390.00    51.4143
    320.0000     390.00    50.3913
    340.0000     390.00    49.4386
    360.0000     390.00    48.5483
    380.0000     390.00    47.7134
    400.0000     390.00    46.9281
    420.0000     390.00    46.1871
    440.0000     390.00    45.4862
    460.0000     390.00    44.8212
    480.0000     390.00    44.1890
    500.0000     390.00    43.5867


      0.0000     400.00   112.8734
     20.0000     400.00    93.8212
     40.0000     400.00    84.3750
     60.0000     400.00    78.0927
     80.0000     400.00    73.4050
    100.0000     400.00    69.6821
    120.0000     400.00    66.6087
    140.0000     400.00    64.0035
    160.0000     400.00    61.7519
    180.0000     400.00    59.7760
    200.0000     400.00    58.0203
    220.0000     400.00    56.4443
    240.0000     400.00    55.0170
    260.0000     400.00    53.7149
    280.0000     400.00    52.5196
    300.0000     400.00    51.4162
    320.0000     400.00    50.3930
    340.0000     400.00    49.4402
    360.0000     400.00    48.5497
    380.0000     400.00    47.7147
    400.0000     400.00    46.9293
    420.0000     400.00    46.1883
    440.0000     400.00    45.4873
    460.0000     400.00    44.8223
    480.0000     400.00    44.1899
    500.0000     400.00    43.5875


      0.0000     410.00   112.9599
     20.0000     410.00    93.8490
     40.0000     410.00    84.3906
     60.0000     410.00    78.1037
     80.0000     410.00    73.4135
    100.0000     410.00    69.6889
    120.0000     410.00    66.6143
    140.0000     410.00    64.0083
    160.0000     410.00    61.7560
    180.0000     410.00    59.7796
    200.0000     410.00    58.0235
    220.0000     410.00    56.4471
    240.0000     410.00    55.0196
    260.0000     410.00    53.7172
    280.0000     410.00    52.5217
    300.0000     410.00    51.4181
    320.0000     410.00    50.3947
    340.0000     410.00    49.4418
    360.0000     410.00    48.5512
    380.0000     410.00    47.7161
    400.0000     410.00    46.9306
    420.0000     410.00    46.1895
    440.0000     410.00    45.4884
    460.0000     410.00    44.8233
    480.0000     410.00    44.1909
    500.0000     410.00    43.5884


      0.0000     420.00   113.0471
     20.0000     420.00    93.8769
     40.0000     420.00    84.4064
     60.0000     420.00    78.1147
     80.0000     420.00    73.4220
    100.0000     420.00    69.6958
    120.0000     420.00    66.6201
    140.0000     420.00    64.0132
    160.0000     420.00    61.7602
    180.0000     420.00    59.7832
    200.0000     420.00    58.0267
    220.0000     420.00    56.4500
    240.0000     420.00    55.0222
    260.0000     420.00    53.7196
    280.0000     420.00    52.5238
    300.0000     420.00    51.4200
    320.0000     420.00    50.3965
    340.0000     420.00    49.4434
    360.0000     420.00    48.5527
    380.0000     420.00    47.7175
    400.0000     420.00    46.9319
    420.0000     420.00    46.1907
    440.0000     420.00    45.4895
    460.0000     420.00    44.8244
    480.0000     420.00    44.1919
    500.0000     420.00    43.5893


      0.0000     430.00   113.1350
     20.0000     430.00    93.9050
     40.0000     430.00    84.4223
     60.0000     430.00    78.1258
     80.0000     430.00    73.4306
    100.0000     430.00    69.7028
    120.0000     430.00    66.6259
    140.0000     430.00    64.0181
    160.0000     430.00    61.7644
    180.0000     430.00    59.7869
    200.0000     430.00    58.0300
    220.0000     430.00    56.4529
    240.0000     430.00    55.0248
    260.0000     430.00    53.7220
    280.0000     430.00    52.5259
    300.0000     430.00    51.4220
    320.0000     430.00    50.3983
    340.0000     430.00    49.4450
    360.0000     430.00    48.5542
    380.0000     430.00    47.7189
    400.0000     430.00    46.9332
    420.0000     430.00    46.1920
    440.0000     430.00    45.4907
    460.0000     430.00    44.8255
    480.0000     430.00    44.1929
    500.0000     430.00    43.5902


      0.0000     440.00   113.2236
     20.0000     440.00    93.9333
     40.0000     440.00    84.4383
     60.0000     440.00    78.1370
     80.0000     440.00    73.4393
    100.0000     440.00    69.7098
    120.0000     440.00    66.6317
    140.0000     440.00    64.0230
    160.0000     440.00    61.7687
    180.0000     440.00    59.7906
    200.0000     440.00    58.0333
    220.0000     440.00    56.4559
    240.0000     440.00    55.0275
    260.0000     440.00    53.7244
    280.0000     440.00    52.5281
    300.0000     440.00    51.4240
    320.0000     440.00    50.4001
    340.0000     440.00    49.4467
    360.0000     440.00    48.5557
    380.0000     440.00    47.7203
    400.0000     440.00    46.9346
    420.0000     440.00    46.1933
    440.0000     440.00    45.4919
    460.0000     440.00    44.8266
    480.0000     440.00    44.1939
    500.0000     440.00    43.5912


      0.0000     450.00   113.3129
     20.0000     450.00    93.9617
     40.0000     450.00    84.4544
     60.0000     450.00    78.1483
     80.0000     450.00    73.4480
    100.0000     450.00    69.7169
    120.0000     450.00    66.6376
    140.0000     450.00    64.0280
    160.0000     450.00    61.7730
    180.0000     450.00    59.7944
    200.0000     450.00    58.0367
    220.0000     450.00    56.4589
    240.0000     450.00    55.0302
    260.0000     450.00    53.7269
    280.0000     450.00    52.5304
    300.0000     450.00    51.4260
    320.0000     450.00    50.4019
    340.0000     450.00    49.4484
    360.0000     450.00    48.5573
    380.0000     450.00    47.7218
    400.0000     450.00    46.9359
    420.0000     450.00    46.1946
    440.0000     450.00    45.4931
    460.0000     450.00    44.8277
    480.0000     450.00    44.1950
    500.0000     450.00    43.5921


      0.0000     460.00   113.4029
     20.0000     460.00    93.9903
     40.0000     460.00    84.4705
     60.0000     460.00    78.1596
     80.0000     460.00    73.4568
    100.0000     460.00    69.7240
    120.0000     460.00    66.6435
    140.0000     460.00    64.0331
    160.0000     460.00    61.7774
    180.0000     460.00    59.7982
    200.0000     460.00    58.0401
    220.0000     460.00    56.4619
    240.0000     460.00    55.0329
    260.0000     460.00    53.7294
    280.0000     460.00    52.5326
    300.0000     460.00    51.4281
    320.0000     460.00    50.4038
    340.0000     460.00    49.4501
    360.0000     460.00    48.5589
    380.0000     460.00    47.7233
    400.0000     460.00    46.9373
    420.0000     460.00    46.1959
    440.0000     460.00    45.4944
    460.0000     460.00    44.8289
    480.0000     460.00    44.1961
    500.0000     460.00    43.5931


      0.0000     470.00   113.4936
     20.0000     470.00    94.0190
     40.0000     470.00    84.4868
     60.0000     470.00    78.1710
     80.0000     470.00    73.4656
    100.0000     470.00    69.7312
    120.0000     470.00    66.6495
    140.0000     470.00    64.0382
    160.0000     470.00    61.7817
    180.0000     470.00    59.8021
    200.0000     470.00    58.0435
    220.0000     470.00    56.4650
    240.0000     470.00    55.0357
    260.0000     470.00    53.7319
    280.0000     470.00    52.5349
    300.0000     470.00    51.4302
    320.0000     470.00    50.4057
    340.0000     470.00    49.4519
    360.0000     470.00    48.5606
    380.0000     470.00    47.7248
    400.0000     470.00    46.9388
    420.0000     470.00    46.1972
    440.0000     470.00    45.4956
    460.0000     470.00    44.8301
    480.0000     470.00    44.1972
    500.0000     470.00    43.5941


      0.0000     480.00   113.5850
     20.0000     480.00    94.0478
     40.0000     480.00    84.5031
     60.0000     480.00    78.1825
     80.0000     480.00    73.4745
    100.0000     480.00    69.7384
    120.0000     480.00    66.6555
    140.0000     480.00    64.0433
    160.0000     480.00    61.7862
    180.0000     480.00    59.8060
    200.0000     480.00    58.0470
    220.0000     480.00    56.4681
    240.0000     480.00    55.0385
    260.0000     480.00    53.7344
    280.0000     480.00    52.5373
    300.0000     480.00    51.4323
    320.0000     480.00    50.4077
    340.0000     480.00    49.4537
    360.0000     480.00    48.5622
    380.0000     480.00    47.7264
    400.0000     480.00    46.9402
    420.0000     480.00    46.1986
    440.0000     480.00    45.4969
    460.0000     480.00    44.8313
    480.0000     480.00    44.1983
    500.0000     480.00    43.5951


      0.0000     490.00   113.6771
     20.0000     490.00    94.0768
     40.0000     490.00    84.5195
     60.0000     490.00    78.1940
     80.0000     490.00    73.4835
    100.0000     490.00    69.7457
    120.0000     490.00    66.6616
    140.0000     490.00    64.0484
    160.0000     490.00    61.7906
    180.0000     490.00    59.8099
    200.0000     490.00    58.0504
    220.0000     490.00    56.4713
    240.0000     490.00    55.0414
    260.0000     490.00    53.7370
    280.0000     490.00    52.5396
    300.0000     490.00    51.4344
    320.0000     490.00    50.4096
    340.0000     490.00    49.4555
    360.0000     490.00    48.5639
    380.0000     490.00    47.7279
    400.0000     490.00    46.9417
    420.0000     490.00    46.2000
    440.0000     490.00    45.4982
    460.0000     490.00    44.8325
    480.0000     490.00    44.1994
    500.0000     490.00    43.5962


      0.0000     500.00   113.7699
     20.0000     500.00    94.1059
     40.0000     500.00    84.5359
     60.0000     500.00    78.2056
     80.0000     500.00    73.4925
    100.0000     500.00    69.7530
    120.0000     500.00    66.6677
    140.0000     500.00    64.0536
    160.0000     500.00    61.7951
    180.0000     500.00    59.8138
    200.0000     500.00    58.0540
    220.0000     500.00    56.4744
    240.0000     500.00    55.0442
    260.0000     500.00    53.7396
    280.0000     500.00    52.5420
    300.0000     500.00    51.4366
    320.0000     500.00    50.4116
    340.0000     500.00    49.4573
    360.0000     500.00    48.5656
    380.0000     500.00    47.7295
    400.0000     500.00    46.9432
    420.0000     500.00    46.2014
    440.0000     500.00    45.4995
    460.0000     500.00    44.8337
    480.0000     500.00    44.2006
    500.0000     500.00    43.5972


      0.0000     510.00   113.8634
     20.0000     510.00    94.1351
     40.0000     510.00    84.5525
     60.0000     510.00    78.2172
     80.0000     510.00    73.5015
    100.0000     510.00    69.7604
    120.0000     510.00    66.6738
    140.0000     510.00    64.0588
    160.0000     510.00    61.7997
    180.0000     510.00    59.8178
    200.0000     510.00    58.0575
    220.0000     510.00    56.4776
    240.0000     510.00    55.0471
    260.0000     510.00    53.7422
    280.0000     510.00    52.5444
    300.0000     510.00    51.4388
    320.0000     510.00    50.4136
    340.0000     510.00    49.4592
    360.0000     510.00    48.5673
    380.0000     510.00    47.7311
    400.0000     510.00    46.9447
    420.0000     510.00    46.2028
    440.0000     510.00    45.5009
    460.0000     510.00    44.8350
    480.0000     510.00    44.2017
    500.0000     510.00    43.5983


      0.0000     520.00   113.9576
     20.0000     520.00    94.1645
     40.0000     520.00    84.5691
     60.0000     520.00    78.2289
     80.0000     520.00    73.5106
    100.0000     520.00    69.7678
    120.0000     520.00    66.6800
    140.0000     520.00    64.0641
    160.0000     520.00    61.8042
    180.0000     520.00    59.8218
    200.0000     520.00    58.0611
    220.0000     520.00    56.4808
    240.0000     520.00    55.0500
    260.0000     520.00    53.7449
    280.0000     520.00    52.5468
    300.0000     520.00    51.4410
    320.0000     520.00    50.4157
    340.0000     520.00    49.4611
    360.0000     520.00    48.5691
    380.0000     520.00    47.7328
    400.0000     520.00    46.9462
    420.0000     520.00    46.2042
    440.0000     520.00    45.5022
    460.0000     520.00    44.8363
    480.0000     520.00    44.2029
    500.0000     520.00    43.5993


      0.0000     530.00   114.0526
     20.0000     530.00    94.1939
     40.0000     530.00    84.5857
     60.0000     530.00    78.2406
     80.0000     530.00    73.5197
    100.0000     530.00    69.7752
    120.0000     530.00    66.6862
    140.0000     530.00    64.0694
    160.0000     530.00    61.8088
    180.0000     530.00    59.8259
    200.0000     530.00    58.0647
    220.0000     530.00    56.4841
    240.0000     530.00    55.0530
    260.0000     530.00    53.7476
    280.0000     530.00    52.5493
    300.0000     530.00    51.4433
    320.0000     530.00    50.4177
    340.0000     530.00    49.4630
    360.0000     530.00    48.5708
    380.0000     530.00    47.7344
    400.0000     530.00    46.9478
    420.0000     530.00    46.2057
    440.0000     530.00    45.5036
    460.0000     530.00    44.8375
    480.0000     530.00    44.2041
    500.0000     530.00    43.6004


      0.0000     540.00   114.1483
     20.0000     540.00    94.2235
     40.0000     540.00    84.6024
     60.0000     540.00    78.2523
     80.0000     540.00    73.5288
    100.0000     540.00    69.7826
    120.0000     540.00    66.6925
    140.0000     540.00    64.0747
    160.0000     540.00    61.8134
    180.0000     540.00    59.8299
    200.0000     540.00    58.0683
    220.0000     540.00    56.4873
    240.0000     540.00    55.0560
    260.0000     540.00    53.7503
    280.0000     540.00    52.5517
    300.0000     540.00    51.4455
    320.0000     540.00    50.4198
    340.0000     540.00    49.4649
    360.0000     540.00    48.5726
    380.0000     540.00    47.7361
    400.0000     540.00    46.9493
    420.0000     540.00    46.2072
    440.0000     540.00    45.5050
    460.0000     540.00    44.8388
    480.0000     540.00    44.2053
    500.0000     540.00    43.6015


      0.0000     550.00   114.2447
     20.0000     550.00    94.2532
     40.0000     550.00    84.6192
     60.0000     550.00    78.2641
     80.0000     550.00    73.5380
    100.0000     550.00    69.7901
    120.0000     550.00    66.6987
    140.0000     550.00    64.0801
    160.0000     550.00    61.8180
    180.0000     550.00    59.8340
    200.0000     550.00    58.0720
    220.0000     550.00    56.4906
    240.0000     550.00    55.0589
    260.0000     550.00    53.7530
    280.0000     550.00    52.5542
    300.0000     550.00    51.4478
    320.0000     550.00    50.4219
    340.0000     550.00    49.4668
    360.0000     550.00    48.5744
    380.0000     550.00    47.7378
    400.0000     550.00    46.9509
    420.0000     550.00    46.2087
    440.0000     550.00    45.5064
    460.0000     550.00    44.8402
    480.0000     550.00    44.2065
    500.0000     550.00    43.6027


      0.0000     560.00   114.3419
     20.0000     560.00    94.2830
     40.0000     560.00    84.6361
     60.0000     560.00    78.2760
     80.0000     560.00    73.5472
    100.0000     560.00    69.7977
    120.0000     560.00    66.7050
    140.0000     560.00    64.0854
    160.0000     560.00    61.8227
    180.0000     560.00    59.8381
    200.0000     560.00    58.0756
    220.0000     560.00    56.4940
    240.0000     560.00    55.0620
    260.0000     560.00    53.7558
    280.0000     560.00    52.5567
    300.0000     560.00    51.4501
    320.0000     560.00    50.4240
    340.0000     560.00    49.4688
    360.0000     560.00    48.5762
    380.0000     560.00    47.7395
    400.0000     560.00    46.9525
    420.0000     560.00    46.2102
    440.0000     560.00    45.5078
    460.0000     560.00    44.8415
    480.0000     560.00    44.2077
    500.0000     560.00    43.6038


      0.0000     570.00   114.4399
     20.0000     570.00    94.3129
     40.0000     570.00    84.6530
     60.0000     570.00    78.2879
     80.0000     570.00    73.5565
    100.0000     570.00    69.8052
    120.0000     570.00    66.7114
    140.0000     570.00    64.0908
    160.0000     570.00    61.8274
    180.0000     570.00    59.8423
    200.0000     570.00    58.0793
    220.0000     570.00    56.4973
    240.0000     570.00    55.0650
    260.0000     570.00    53.7585
    280.0000     570.00    52.5593
    300.0000     570.00    51.4524
    320.0000     570.00    50.4262
    340.0000     570.00    49.4707
    360.0000     570.00    48.5781
    380.0000     570.00    47.7412
    400.0000     570.00    46.9541
    420.0000     570.00    46.2117
    440.0000     570.00    45.5092
    460.0000     570.00    44.8428
    480.0000     570.00    44.2090
    500.0000     570.00    43.6049


      0.0000     580.00   114.5386
     20.0000     580.00    94.3429
     40.0000     580.00    84.6699
     60.0000     580.00    78.2998
     80.0000     580.00    73.5658
    100.0000     580.00    69.8128
    120.0000     580.00    66.7177
    140.0000     580.00    64.0963
    160.0000     580.00    61.8321
    180.0000     580.00    59.8464
    200.0000     580.00    58.0831
    220.0000     580.00    56.5007
    240.0000     580.00    55.0680
    260.0000     580.00    53.7613
    280.0000     580.00    52.5618
    300.0000     580.00    51.4548
    320.0000     580.00    50.4283
    340.0000     580.00    49.4727
    360.0000     580.00    48.5799
    380.0000     580.00    47.7429
    400.0000     580.00    46.9557
    420.0000     580.00    46.2132
    440.0000     580.00    45.5107
    460.0000     580.00    44.8442
    480.0000     580.00    44.2102
    500.0000     580.00    43.6061


      0.0000     590.00   114.6380
     20.0000     590.00    94.3731
     40.0000     590.00    84.6869
     60.0000     590.00    78.3117
     80.0000     590.00    73.5751
    100.0000     590.00    69.8204
    120.0000     590.00    66.7241
    140.0000     590.00    64.1017
    160.0000     590.00    61.8368
    180.0000     590.00    59.8506
    200.0000     590.00    58.0868
    220.0000     590.00    56.5040
    240.0000     590.00    55.0711
    260.0000     590.00    53.7641
    280.0000     590.00    52.5644
    300.0000     590.00    51.4571
    320.0000     590.00    50.4305
    340.0000     590.00    49.4747
    360.0000     590.00    48.5818
    380.0000     590.00    47.7446
    400.0000     590.00    46.9574
    420.0000     590.00    46.2148
    440.0000     590.00    45.5121
    460.0000     590.00    44.8455
    480.0000     590.00    44.2115
    500.0000     590.00    43.6072


      0.0000     600.00   114.7383
     20.0000     600.00    94.4033
     40.0000     600.00    84.7040
     60.0000     600.00    78.3237
     80.0000     600.00    73.5844
    100.0000     600.00    69.8281
    120.0000     600.00    66.7305
    140.0000     600.00    64.1072
    160.0000     600.00    61.8416
    180.0000     600.00    59.8548
    200.0000     600.00    58.0906
    220.0000     600.00    56.5074
    240.0000     600.00    55.0742
    260.0000     600.00    53.7669
    280.0000     600.00    52.5670
    300.0000     600.00    51.4595
    320.0000     600.00    50.4327
    340.0000     600.00    49.4768
    360.0000     600.00    48.5836
    380.0000     600.00    47.7464
    400.0000     600.00    46.9590
    420.0000     600.00    46.2163
    440.0000     600.00    45.5136
    460.0000     600.00    44.8469
    480.0000     600.00    44.2128
    500.0000     600.00    43.6084


      0.0000     610.00   114.8393
     20.0000     610.00    94.4336
     40.0000     610.00    84.7211
     60.0000     610.00    78.3358
     80.0000     610.00    73.5938
    100.0000     610.00    69.8357
    120.0000     610.00    66.7369
    140.0000     610.00    64.1127
    160.0000     610.00    61.8464
    180.0000     610.00    59.8590
    200.0000     610.00    58.0943
    220.0000     610.00    56.5108
    240.0000     610.00    55.0773
    260.0000     610.00    53.7698
    280.0000     610.00    52.5696
    300.0000     610.00    51.4619
    320.0000     610.00    50.4349
    340.0000     610.00    49.4788
    360.0000     610.00    48.5855
    380.0000     610.00    47.7482
    400.0000     610.00    46.9607
    420.0000     610.00    46.2179
    440.0000     610.00    45.5151
    460.0000     610.00    44.8483
    480.0000     610.00    44.2141
    500.0000     610.00    43.6096


      0.0000     620.00   114.9411
     20.0000     620.00    94.4641
     40.0000     620.00    84.7382
     60.0000     620.00    78.3478
     80.0000     620.00    73.6032
    100.0000     620.00    69.8434
    120.0000     620.00    66.7434
    140.0000     620.00    64.1182
    160.0000     620.00    61.8512
    180.0000     620.00    59.8633
    200.0000     620.00    58.0981
    220.0000     620.00    56.5143
    240.0000     620.00    55.0804
    260.0000     620.00    53.7726
    280.0000     620.00    52.5722
    300.0000     620.00    51.4643
    320.0000     620.00    50.4371
    340.0000     620.00    49.4809
    360.0000     620.00    48.5874
    380.0000     620.00    47.7500
    400.0000     620.00    46.9624
    420.0000     620.00    46.2195
    440.0000     620.00    45.5166
    460.0000     620.00    44.8497
    480.0000     620.00    44.2154
    500.0000     620.00    43.6108


      0.0000     630.00   115.0438
     20.0000     630.00    94.4946
     40.0000     630.00    84.7554
     60.0000     630.00    78.3599
     80.0000     630.00    73.6127
    100.0000     630.00    69.8511
    120.0000     630.00    66.7498
    140.0000     630.00    64.1237
    160.0000     630.00    61.8560
    180.0000     630.00    59.8675
    200.0000     630.00    58.1019
    220.0000     630.00    56.5177
    240.0000     630.00    55.0836
    260.0000     630.00    53.7755
    280.0000     630.00    52.5748
    300.0000     630.00    51.4667
    320.0000     630.00    50.4393
    340.0000     630.00    49.4829
    360.0000     630.00    48.5894
    380.0000     630.00    47.7518
    400.0000     630.00    46.9641
    420.0000     630.00    46.2211
    440.0000     630.00    45.5181
    460.0000     630.00    44.8511
    480.0000     630.00    44.2167
    500.0000     630.00    43.6120


      0.0000     640.00   115.1472
     20.0000     640.00    94.5252
     40.0000     640.00    84.7726
     60.0000     640.00    78.3720
     80.0000     640.00    73.6221
    100.0000     640.00    69.8588
    120.0000     640.00    66.7563
    140.0000     640.00    64.1293
    160.0000     640.00    61.8608
    180.0000     640.00    59.8718
    200.0000     640.00    58.1058
    220.0000     640.00    56.5212
    240.0000     640.00    55.0867
    260.0000     640.00    53.7784
    280.0000     640.00    52.5775
    300.0000     640.00    51.4691
    320.0000     640.00    50.4416
    340.0000     640.00    49.4850
    360.0000     640.00    48.5913
    380.0000     640.00    47.7536
    400.0000     640.00    46.9658
    420.0000     640.00    46.2227
    440.0000     640.00    45.5196
    460.0000     640.00    44.8525
    480.0000     640.00    44.2180
    500.0000     640.00    43.6132


      0.0000     650.00   115.2515
     20.0000     650.00    94.5560
     40.0000     650.00    84.7899
     60.0000     650.00    78.3842
     80.0000     650.00    73.6316
    100.0000     650.00    69.8666
    120.0000     650.00    66.7628
    140.0000     650.00    64.1348
    160.0000     650.00    61.8657
    180.0000     650.00    59.8761
    200.0000     650.00    58.1096
    220.0000     650.00    56.5247
    240.0000     650.00    55.0899
    260.0000     650.00    53.7813
    280.0000     650.00    52.5801
    300.0000     650.00    51.4716
    320.0000     650.00    50.4438
    340.0000     650.00    49.4871
    360.0000     650.00    48.5933
    380.0000     650.00    47.7554
    400.0000     650.00    46.9675
    420.0000     650.00    46.2243
    440.0000     650.00    45.5211
    460.0000     650.00    44.8540
    480.0000     650.00    44.2193
    500.0000     650.00    43.6144


      0.0000     660.00   115.3566
     20.0000     660.00    94.5868
     40.0000     660.00    84.8073
     60.0000     660.00    78.3964
     80.0000     660.00    73.6411
    100.0000     660.00    69.8744
    120.0000     660.00    66.7694
    140.0000     660.00    64.1404
    160.0000     660.00    61.8705
    180.0000     660.00    59.8804
    200.0000     660.00    58.1135
    220.0000     660.00    56.5282
    240.0000     660.00    55.0931
    260.0000     660.00    53.7842
    280.0000     660.00    52.5828
    300.0000     660.00    51.4741
    320.0000     660.00    50.4461
    340.0000     660.00    49.4892
    360.0000     660.00    48.5952
    380.0000     660.00    47.7572
    400.0000     660.00    46.9692
    420.0000     660.00    46.2259
    440.0000     660.00    45.5227
    460.0000     660.00    44.8554
    480.0000     660.00    44.2207
    500.0000     660.00    43.6157


      0.0000     670.00   115.4626
     20.0000     670.00    94.6177
     40.0000     670.00    84.8246
     60.0000     670.00    78.4086
     80.0000     670.00    73.6506
    100.0000     670.00    69.8822
    120.0000     670.00    66.7759
    140.0000     670.00    64.1460
    160.0000     670.00    61.8754
    180.0000     670.00    59.8847
    200.0000     670.00    58.1174
    220.0000     670.00    56.5317
    240.0000     670.00    55.0963
    260.0000     670.00    53.7872
    280.0000     670.00    52.5855
    300.0000     670.00    51.4765
    320.0000     670.00    50.4484
    340.0000     670.00    49.4913
    360.0000     670.00    48.5972
    380.0000     670.00    47.7591
    400.0000     670.00    46.9710
    420.0000     670.00    46.2276
    440.0000     670.00    45.5242
    460.0000     670.00    44.8569
    480.0000     670.00    44.2220
    500.0000     670.00    43.6169


      0.0000     680.00   115.5695
     20.0000     680.00    94.6487
     40.0000     680.00    84.8420
     60.0000     680.00    78.4208
     80.0000     680.00    73.6602
    100.0000     680.00    69.8900
    120.0000     680.00    66.7825
    140.0000     680.00    64.1517
    160.0000     680.00    61.8803
    180.0000     680.00    59.8891
    200.0000     680.00    58.1212
    220.0000     680.00    56.5352
    240.0000     680.00    55.0995
    260.0000     680.00    53.7901
    280.0000     680.00    52.5882
    300.0000     680.00    51.4790
    320.0000     680.00    50.4507
    340.0000     680.00    49.4934
    360.0000     680.00    48.5992
    380.0000     680.00    47.7609
    400.0000     680.00    46.9727
    420.0000     680.00    46.2292
    440.0000     680.00    45.5258
    460.0000     680.00    44.8583
    480.0000     680.00    44.2234
    500.0000     680.00    43.6182


      0.0000     690.00   115.6773
     20.0000     690.00    94.6798
     40.0000     690.00    84.8595
     60.0000     690.00    78.4331
     80.0000     690.00    73.6697
    100.0000     690.00    69.8978
    120.0000     690.00    66.7891
    140.0000     690.00    64.1573
    160.0000     690.00    61.8852
    180.0000     690.00    59.8934
    200.0000     690.00    58.1252
    220.0000     690.00    56.5387
    240.0000     690.00    55.1027
    260.0000     690.00    53.7931
    280.0000     690.00    52.5909
    300.0000     690.00    51.4815
    320.0000     690.00    50.4530
    340.0000     690.00    49.4956
    360.0000     690.00    48.6012
    380.0000     690.00    47.7628
    400.0000     690.00    46.9745
    420.0000     690.00    46.2309
    440.0000     690.00    45.5273
    460.0000     690.00    44.8598
    480.0000     690.00    44.2248
    500.0000     690.00    43.6194


      0.0000     700.00   115.7860
     20.0000     700.00    94.7110
     40.0000     700.00    84.8770
     60.0000     700.00    78.4454
     80.0000     700.00    73.6793
    100.0000     700.00    69.9057
    120.0000     700.00    66.7957
    140.0000     700.00    64.1630
    160.0000     700.00    61.8902
    180.0000     700.00    59.8978
    200.0000     700.00    58.1291
    220.0000     700.00    56.5423
    240.0000     700.00    55.1060
    260.0000     700.00    53.7960
    280.0000     700.00    52.5936
    300.0000     700.00    51.4840
    320.0000     700.00    50.4553
    340.0000     700.00    49.4977
    360.0000     700.00    48.6032
    380.0000     700.00    47.7647
    400.0000     700.00    46.9762
    420.0000     700.00    46.2325
    440.0000     700.00    45.5289
    460.0000     700.00    44.8613
    480.0000     700.00    44.2261
    500.0000     700.00    43.6207


      0.0000     710.00   115.8955
     20.0000     710.00    94.7423
     40.0000     710.00    84.8945
     60.0000     710.00    78.4577
     80.0000     710.00    73.6889
    100.0000     710.00    69.9135
    120.0000     710.00    66.8023
    140.0000     710.00    64.1686
    160.0000     710.00    61.8951
    180.0000     710.00    59.9022
    200.0000     710.00    58.1330
    220.0000     710.00    56.5459
    240.0000     710.00    55.1092
    260.0000     710.00    53.7990
    280.0000     710.00    52.5964
    300.0000     710.00    51.4866
    320.0000     710.00    50.4576
    340.0000     710.00    49.4999
    360.0000     710.00    48.6052
    380.0000     710.00    47.7666
    400.0000     710.00    46.9780
    420.0000     710.00    46.2342
    440.0000     710.00    45.5305
    460.0000     710.00    44.8628
    480.0000     710.00    44.2275
    500.0000     710.00    43.6220


      0.0000     720.00   116.0061
     20.0000     720.00    94.7737
     40.0000     720.00    84.9121
     60.0000     720.00    78.4700
     80.0000     720.00    73.6986
    100.0000     720.00    69.9214
    120.0000     720.00    66.8089
    140.0000     720.00    64.1743
    160.0000     720.00    61.9001
    180.0000     720.00    59.9066
    200.0000     720.00    58.1369
    220.0000     720.00    56.5494
    240.0000     720.00    55.1125
    260.0000     720.00    53.8020
    280.0000     720.00    52.5991
    300.0000     720.00    51.4891
    320.0000     720.00    50.4600
    340.0000     720.00    49.5021
    360.0000     720.00    48.6072
    380.0000     720.00    47.7685
    400.0000     720.00    46.9798
    420.0000     720.00    46.2359
    440.0000     720.00    45.5321
    460.0000     720.00    44.8643
    480.0000     720.00    44.2289
    500.0000     720.00    43.6232


      0.0000     730.00   116.1175
     20.0000     730.00    94.8052
     40.0000     730.00    84.9297
     60.0000     730.00    78.4824
     80.0000     730.00    73.7082
    100.0000     730.00    69.9293
    120.0000     730.00    66.8156
    140.0000     730.00    64.1800
    160.0000     730.00    61.9051
    180.0000     730.00    59.9110
    200.0000     730.00    58.1409
    220.0000     730.00    56.5530
    240.0000     730.00    55.1158
    260.0000     730.00    53.8050
    280.0000     730.00    52.6019
    300.0000     730.00    51.4916
    320.0000     730.00    50.4623
    340.0000     730.00    49.5042
    360.0000     730.00    48.6092
    380.0000     730.00    47.7704
    400.0000     730.00    46.9816
    420.0000     730.00    46.2376
    440.0000     730.00    45.5337
    460.0000     730.00    44.8658
    480.0000     730.00    44.2303
    500.0000     730.00    43.6245


      0.0000     740.00   116.2300
     20.0000     740.00    94.8367
     40.0000     740.00    84.9473
     60.0000     740.00    78.4948
     80.0000     740.00    73.7179
    100.0000     740.00    69.9373
    120.0000     740.00    66.8222
    140.0000     740.00    64.1857
    160.0000     740.00    61.9100
    180.0000     740.00    59.9154
    200.0000     740.00    58.1449
    220.0000     740.00    56.5566
    240.0000     740.00    55.1191
    260.0000     740.00    53.8080
    280.0000     740.00    52.6047
    300.0000     740.00    51.4942
    320.0000     740.00    50.4647
    340.0000     740.00    49.5064
    360.0000     740.00    48.6113
    380.0000     740.00    47.7723
    400.0000     740.00    46.9834
    420.0000     740.00    46.2393
    440.0000     740.00    45.5353
    460.0000     740.00    44.8673
    480.0000     740.00    44.2317
    500.0000     740.00    43.6258


      0.0000     750.00   116.3434
     20.0000     750.00    94.8684
     40.0000     750.00    84.9650
     60.0000     750.00    78.5072
     80.0000     750.00    73.7275
    100.0000     750.00    69.9452
    120.0000     750.00    66.8289
    140.0000     750.00    64.1915
    160.0000     750.00    61.9150
    180.0000     750.00    59.9198
    200.0000     750.00    58.1488
    220.0000     750.00    56.5602
    240.0000     750.00    55.1224
    260.0000     750.00    53.8110
    280.0000     750.00    52.6074
    300.0000     750.00    51.4967
    320.0000     750.00    50.4671
    340.0000     750.00    49.5086
    360.0000     750.00    48.6133
    380.0000     750.00    47.7742
    400.0000     750.00    46.9852
    420.0000     750.00    46.2410
    440.0000     750.00    45.5369
    460.0000     750.00    44.8688
    480.0000     750.00    44.2331
    500.0000     750.00    43.6271


      0.0000     760.00   116.4579
     20.0000     760.00    94.9001
     40.0000     760.00    84.9827
     60.0000     760.00    78.5196
     80.0000     760.00    73.7372
    100.0000     760.00    69.9531
    120.0000     760.00    66.8356
    140.0000     760.00    64.1972
    160.0000     760.00    61.9200
    180.0000     760.00    59.9242
    200.0000     760.00    58.1528
    220.0000     760.00    56.5639
    240.0000     760.00    55.1257
    260.0000     760.00    53.8141
    280.0000     760.00    52.6102
    300.0000     760.00    51.4993
    320.0000     760.00    50.4694
    340.0000     760.00    49.5108
    360.0000     760.00    48.6154
    380.0000     760.00    47.7761
    400.0000     760.00    46.9870
    420.0000     760.00    46.2427
    440.0000     760.00    45.5385
    460.0000     760.00    44.8703
    480.0000     760.00    44.2345
    500.0000     760.00    43.6284


      0.0000     770.00   116.5733
     20.0000     770.00    94.9319
     40.0000     770.00    85.0005
     60.0000     770.00    78.5321
     80.0000     770.00    73.7470
    100.0000     770.00    69.9611
    120.0000     770.00    66.8423
    140.0000     770.00    64.2030
    160.0000     770.00    61.9251
    180.0000     770.00    59.9287
    200.0000     770.00    58.1568
    220.0000     770.00    56.5675
    240.0000     770.00    55.1290
    260.0000     770.00    53.8171
    280.0000     770.00    52.6130
    300.0000     770.00    51.5019
    320.0000     770.00    50.4718
    340.0000     770.00    49.5130
    360.0000     770.00    48.6174
    380.0000     770.00    47.7781
    400.0000     770.00    46.9888
    420.0000     770.00    46.2444
    440.0000     770.00    45.5401
    460.0000     770.00    44.8718
    480.0000     770.00    44.2360
    500.0000     770.00    43.6297


      0.0000     780.00   116.6899
     20.0000     780.00    94.9638
     40.0000     780.00    85.0182
     60.0000     780.00    78.5445
     80.0000     780.00    73.7567
    100.0000     780.00    69.9691
    120.0000     780.00    66.8490
    140.0000     780.00    64.2087
    160.0000     780.00    61.9301
    180.0000     780.00    59.9332
    200.0000     780.00    58.1609
    220.0000     780.00    56.5711
    240.0000     780.00    55.1323
    260.0000     780.00    53.8202
    280.0000     780.00    52.6158
    300.0000     780.00    51.5045
    320.0000     780.00    50.4742
    340.0000     780.00    49.5153
    360.0000     780.00    48.6195
    380.0000     780.00    47.7800
    400.0000     780.00    46.9907
    420.0000     780.00    46.2462
    440.0000     780.00    45.5418
    460.0000     780.00    44.8734
    480.0000     780.00    44.2374
    500.0000     780.00    43.6311


      0.0000     790.00   116.8074
     20.0000     790.00    94.9958
     40.0000     790.00    85.0361
     60.0000     790.00    78.5570
     80.0000     790.00    73.7665
    100.0000     790.00    69.9771
    120.0000     790.00    66.8558
    140.0000     790.00    64.2145
    160.0000     790.00    61.9351
    180.0000     790.00    59.9376
    200.0000     790.00    58.1649
    220.0000     790.00    56.5748
    240.0000     790.00    55.1357
    260.0000     790.00    53.8232
    280.0000     790.00    52.6187
    300.0000     790.00    51.5071
    320.0000     790.00    50.4766
    340.0000     790.00    49.5175
    360.0000     790.00    48.6216
    380.0000     790.00    47.7820
    400.0000     790.00    46.9925
    420.0000     790.00    46.2479
    440.0000     790.00    45.5434
    460.0000     790.00    44.8749
    480.0000     790.00    44.2388
    500.0000     790.00    43.6324


      0.0000     800.00   116.9261
     20.0000     800.00    95.0279
     40.0000     800.00    85.0539
     60.0000     800.00    78.5695
     80.0000     800.00    73.7762
    100.0000     800.00    69.9851
    120.0000     800.00    66.8625
    140.0000     800.00    64.2203
    160.0000     800.00    61.9402
    180.0000     800.00    59.9421
    200.0000     800.00    58.1689
    220.0000     800.00    56.5784
    240.0000     800.00    55.1390
    260.0000     800.00    53.8263
    280.0000     800.00    52.6215
    300.0000     800.00    51.5097
    320.0000     800.00    50.4790
    340.0000     800.00    49.5197
    360.0000     800.00    48.6237
    380.0000     800.00    47.7839
    400.0000     800.00    46.9943
    420.0000     800.00    46.2496
    440.0000     800.00    45.5451
    460.0000     800.00    44.8764
    480.0000     800.00    44.2403
    500.0000     800.00    43.6337
