# columns ptv
# pressure GPa
# temperature K
# volume bohr^3
# nelectrons 20
# natoms 2
# 01:p(GPa) 02:T(K) 03:V(bohr^3)
      0.0000       0.00   125.4823  
     20.0000       0.00   113.7169  
     40.0000       0.00   105.8662  
     60.0000       0.00   100.0141  
     80.0000       0.00    95.3756  
    100.0000       0.00    91.5507  
    120.0000       0.00    88.3079  
    140.0000       0.00    85.5014  
    160.0000       0.00    83.0335  
    180.0000       0.00    80.8357  
    200.0000       0.00    78.8581  
    220.0000       0.00    77.0632  
    240.0000       0.00    75.4223  
    260.0000       0.00    73.9129  
    280.0000       0.00    72.5167  
    300.0000       0.00    71.2194  
    320.0000       0.00    70.0087  
    340.0000       0.00    68.8747  
    360.0000       0.00    67.8091  
    380.0000       0.00    66.8047  
    400.0000       0.00    65.8553  
    420.0000       0.00    64.9559  
    440.0000       0.00    64.1018  
    460.0000       0.00    63.2890  
    480.0000       0.00    62.5141  
    500.0000       0.00    61.7740  


      0.0000      50.00   125.4833  
     20.0000      50.00   113.7173  
     40.0000      50.00   105.8663  
     60.0000      50.00   100.0142  
     80.0000      50.00    95.3757  
    100.0000      50.00    91.5508  
    120.0000      50.00    88.3079  
    140.0000      50.00    85.5014  
    160.0000      50.00    83.0335  
    180.0000      50.00    80.8357  
    200.0000      50.00    78.8581  
    220.0000      50.00    77.0632  
    240.0000      50.00    75.4224  
    260.0000      50.00    73.9129  
    280.0000      50.00    72.5168  
    300.0000      50.00    71.2194  
    320.0000      50.00    70.0087  
    340.0000      50.00    68.8747  
    360.0000      50.00    67.8091  
    380.0000      50.00    66.8047  
    400.0000      50.00    65.8554  
    420.0000      50.00    64.9559  
    440.0000      50.00    64.1018  
    460.0000      50.00    63.2890  
    480.0000      50.00    62.5141  
    500.0000      50.00    61.7740  


      0.0000     100.00   125.5032  
     20.0000     100.00   113.7243  
     40.0000     100.00   105.8696  
     60.0000     100.00   100.0160  
     80.0000     100.00    95.3768  
    100.0000     100.00    91.5515  
    120.0000     100.00    88.3085  
    140.0000     100.00    85.5018  
    160.0000     100.00    83.0339  
    180.0000     100.00    80.8360  
    200.0000     100.00    78.8584  
    220.0000     100.00    77.0635  
    240.0000     100.00    75.4226  
    260.0000     100.00    73.9131  
    280.0000     100.00    72.5170  
    300.0000     100.00    71.2196  
    320.0000     100.00    70.0089  
    340.0000     100.00    68.8750  
    360.0000     100.00    67.8093  
    380.0000     100.00    66.8049  
    400.0000     100.00    65.8555  
    420.0000     100.00    64.9561  
    440.0000     100.00    64.1019  
    460.0000     100.00    63.2891  
    480.0000     100.00    62.5142  
    500.0000     100.00    61.7741  


      0.0000     150.00   125.5713  
     20.0000     150.00   113.7529  
     40.0000     150.00   105.8848  
     60.0000     150.00   100.0251  
     80.0000     150.00    95.3828  
    100.0000     150.00    91.5558  
    120.0000     150.00    88.3117  
    140.0000     150.00    85.5045  
    160.0000     150.00    83.0361  
    180.0000     150.00    80.8379  
    200.0000     150.00    78.8601  
    220.0000     150.00    77.0650  
    240.0000     150.00    75.4240  
    260.0000     150.00    73.9144  
    280.0000     150.00    72.5181  
    300.0000     150.00    71.2206  
    320.0000     150.00    70.0099  
    340.0000     150.00    68.8758  
    360.0000     150.00    67.8101  
    380.0000     150.00    66.8056  
    400.0000     150.00    65.8562  
    420.0000     150.00    64.9567  
    440.0000     150.00    64.1025  
    460.0000     150.00    63.2896  
    480.0000     150.00    62.5147  
    500.0000     150.00    61.7745  


      0.0000     200.00   125.6892  
     20.0000     200.00   113.8087  
     40.0000     200.00   105.9172  
     60.0000     200.00   100.0461  
     80.0000     200.00    95.3975  
    100.0000     200.00    91.5667  
    120.0000     200.00    88.3202  
    140.0000     200.00    85.5113  
    160.0000     200.00    83.0418  
    180.0000     200.00    80.8429  
    200.0000     200.00    78.8644  
    220.0000     200.00    77.0688  
    240.0000     200.00    75.4273  
    260.0000     200.00    73.9174  
    280.0000     200.00    72.5208  
    300.0000     200.00    71.2231  
    320.0000     200.00    70.0121  
    340.0000     200.00    68.8778  
    360.0000     200.00    67.8119  
    380.0000     200.00    66.8072  
    400.0000     200.00    65.8577  
    420.0000     200.00    64.9580  
    440.0000     200.00    64.1037  
    460.0000     200.00    63.2908  
    480.0000     200.00    62.5157  
    500.0000     200.00    61.7755  


      0.0000     250.00   125.8460  
     20.0000     250.00   113.8885  
     40.0000     250.00   105.9662  
     60.0000     250.00   100.0794  
     80.0000     250.00    95.4217  
    100.0000     250.00    91.5852  
    120.0000     250.00    88.3350  
    140.0000     250.00    85.5235  
    160.0000     250.00    83.0521  
    180.0000     250.00    80.8517  
    200.0000     250.00    78.8720  
    220.0000     250.00    77.0755  
    240.0000     250.00    75.4333  
    260.0000     250.00    73.9227  
    280.0000     250.00    72.5257  
    300.0000     250.00    71.2274  
    320.0000     250.00    70.0160  
    340.0000     250.00    68.8814  
    360.0000     250.00    67.8152  
    380.0000     250.00    66.8102  
    400.0000     250.00    65.8604  
    420.0000     250.00    64.9606  
    440.0000     250.00    64.1061  
    460.0000     250.00    63.2929  
    480.0000     250.00    62.5177  
    500.0000     250.00    61.7773  


      0.0000     300.00   126.0310  
     20.0000     300.00   113.9869  
     40.0000     300.00   106.0290  
     60.0000     300.00   100.1233  
     80.0000     300.00    95.4545  
    100.0000     300.00    91.6109  
    120.0000     300.00    88.3558  
    140.0000     300.00    85.5409  
    160.0000     300.00    83.0669  
    180.0000     300.00    80.8645  
    200.0000     300.00    78.8833  
    220.0000     300.00    77.0855  
    240.0000     300.00    75.4423  
    260.0000     300.00    73.9307  
    280.0000     300.00    72.5329  
    300.0000     300.00    71.2340  
    320.0000     300.00    70.0220  
    340.0000     300.00    68.8869  
    360.0000     300.00    67.8202  
    380.0000     300.00    66.8148  
    400.0000     300.00    65.8647  
    420.0000     300.00    64.9644  
    440.0000     300.00    64.1096  
    460.0000     300.00    63.2962  
    480.0000     300.00    62.5208  
    500.0000     300.00    61.7802  


      0.0000     350.00   126.2365  
     20.0000     350.00   114.0994  
     40.0000     350.00   106.1025  
     60.0000     350.00   100.1759  
     80.0000     350.00    95.4945  
    100.0000     350.00    91.6427  
    120.0000     350.00    88.3820  
    140.0000     350.00    85.5629  
    160.0000     350.00    83.0858  
    180.0000     350.00    80.8810  
    200.0000     350.00    78.8979  
    220.0000     350.00    77.0986  
    240.0000     350.00    75.4540  
    260.0000     350.00    73.9413  
    280.0000     350.00    72.5425  
    300.0000     350.00    71.2428  
    320.0000     350.00    70.0300  
    340.0000     350.00    68.8942  
    360.0000     350.00    67.8269  
    380.0000     350.00    66.8210  
    400.0000     350.00    65.8704  
    420.0000     350.00    64.9698  
    440.0000     350.00    64.1146  
    460.0000     350.00    63.3008  
    480.0000     350.00    62.5250  
    500.0000     350.00    61.7841  


      0.0000     400.00   126.4575  
     20.0000     400.00   114.2225  
     40.0000     400.00   106.1842  
     60.0000     400.00   100.2352  
     80.0000     400.00    95.5401  
    100.0000     400.00    91.6794  
    120.0000     400.00    88.4125  
    140.0000     400.00    85.5889  
    160.0000     400.00    83.1083  
    180.0000     400.00    80.9008  
    200.0000     400.00    78.9155  
    220.0000     400.00    77.1144  
    240.0000     400.00    75.4682  
    260.0000     400.00    73.9543  
    280.0000     400.00    72.5543  
    300.0000     400.00    71.2536  
    320.0000     400.00    70.0399  
    340.0000     400.00    68.9034  
    360.0000     400.00    67.8354  
    380.0000     400.00    66.8289  
    400.0000     400.00    65.8777  
    420.0000     400.00    64.9765  
    440.0000     400.00    64.1209  
    460.0000     400.00    63.3067  
    480.0000     400.00    62.5305  
    500.0000     400.00    61.7893  


      0.0000     450.00   126.6905  
     20.0000     450.00   114.3538  
     40.0000     450.00   106.2723  
     60.0000     450.00   100.2998  
     80.0000     450.00    95.5904  
    100.0000     450.00    91.7201  
    120.0000     450.00    88.4466  
    140.0000     450.00    85.6181  
    160.0000     450.00    83.1338  
    180.0000     450.00    80.9234  
    200.0000     450.00    78.9356  
    220.0000     450.00    77.1325  
    240.0000     450.00    75.4847  
    260.0000     450.00    73.9693  
    280.0000     450.00    72.5680  
    300.0000     450.00    71.2662  
    320.0000     450.00    70.0516  
    340.0000     450.00    68.9141  
    360.0000     450.00    67.8454  
    380.0000     450.00    66.8381  
    400.0000     450.00    65.8863  
    420.0000     450.00    64.9846  
    440.0000     450.00    64.1284  
    460.0000     450.00    63.3138  
    480.0000     450.00    62.5372  
    500.0000     450.00    61.7955  


      0.0000     500.00   126.9334  
     20.0000     500.00   114.4916  
     40.0000     500.00   106.3655  
     60.0000     500.00   100.3687  
     80.0000     500.00    95.6442  
    100.0000     500.00    91.7641  
    120.0000     500.00    88.4835  
    140.0000     500.00    85.6499  
    160.0000     500.00    83.1617  
    180.0000     500.00    80.9482  
    200.0000     500.00    78.9579  
    220.0000     500.00    77.1526  
    240.0000     500.00    75.5030  
    260.0000     500.00    73.9860  
    280.0000     500.00    72.5835  
    300.0000     500.00    71.2804  
    320.0000     500.00    70.0647  
    340.0000     500.00    68.9263  
    360.0000     500.00    67.8567  
    380.0000     500.00    66.8487  
    400.0000     500.00    65.8962  
    420.0000     500.00    64.9938  
    440.0000     500.00    64.1371  
    460.0000     500.00    63.3219  
    480.0000     500.00    62.5448  
    500.0000     500.00    61.8028  


      0.0000     550.00   127.1846  
     20.0000     550.00   114.6345  
     40.0000     550.00   106.4627  
     60.0000     550.00   100.4408  
     80.0000     550.00    95.7010  
    100.0000     550.00    91.8106  
    120.0000     550.00    88.5229  
    140.0000     550.00    85.6839  
    160.0000     550.00    83.1917  
    180.0000     550.00    80.9748  
    200.0000     550.00    78.9819  
    220.0000     550.00    77.1744  
    240.0000     550.00    75.5229  
    260.0000     550.00    74.0043  
    280.0000     550.00    72.6003  
    300.0000     550.00    71.2960  
    320.0000     550.00    70.0792  
    340.0000     550.00    68.9398  
    360.0000     550.00    67.8693  
    380.0000     550.00    66.8604  
    400.0000     550.00    65.9072  
    420.0000     550.00    65.0041  
    440.0000     550.00    64.1468  
    460.0000     550.00    63.3310  
    480.0000     550.00    62.5535  
    500.0000     550.00    61.8109  


      0.0000     600.00   127.4430  
     20.0000     600.00   114.7818  
     40.0000     600.00   106.5632  
     60.0000     600.00   100.5157  
     80.0000     600.00    95.7601  
    100.0000     600.00    91.8593  
    120.0000     600.00    88.5641  
    140.0000     600.00    85.7197  
    160.0000     600.00    83.2233  
    180.0000     600.00    81.0031  
    200.0000     600.00    79.0074  
    220.0000     600.00    77.1976  
    240.0000     600.00    75.5441  
    260.0000     600.00    74.0238  
    280.0000     600.00    72.6183  
    300.0000     600.00    71.3127  
    320.0000     600.00    70.0947  
    340.0000     600.00    68.9543  
    360.0000     600.00    67.8828  
    380.0000     600.00    66.8731  
    400.0000     600.00    65.9191  
    420.0000     600.00    65.0153  
    440.0000     600.00    64.1573  
    460.0000     600.00    63.3410  
    480.0000     600.00    62.5629  
    500.0000     600.00    61.8198  


      0.0000     650.00   127.7080  
     20.0000     650.00   114.9328  
     40.0000     650.00   106.6666  
     60.0000     650.00   100.5930  
     80.0000     650.00    95.8213  
    100.0000     650.00    91.9097  
    120.0000     650.00    88.6070  
    140.0000     650.00    85.7570  
    160.0000     650.00    83.2562  
    180.0000     650.00    81.0326  
    200.0000     650.00    79.0341  
    220.0000     650.00    77.2220  
    240.0000     650.00    75.5665  
    260.0000     650.00    74.0444  
    280.0000     650.00    72.6374  
    300.0000     650.00    71.3304  
    320.0000     650.00    70.1112  
    340.0000     650.00    68.9697  
    360.0000     650.00    67.8972  
    380.0000     650.00    66.8867  
    400.0000     650.00    65.9318  
    420.0000     650.00    65.0273  
    440.0000     650.00    64.1687  
    460.0000     650.00    63.3517  
    480.0000     650.00    62.5730  
    500.0000     650.00    61.8294  


      0.0000     700.00   127.9790  
     20.0000     700.00   115.0871  
     40.0000     700.00   106.7722  
     60.0000     700.00   100.6721  
     80.0000     700.00    95.8840  
    100.0000     700.00    91.9616  
    120.0000     700.00    88.6512  
    140.0000     700.00    85.7955  
    160.0000     700.00    83.2904  
    180.0000     700.00    81.0632  
    200.0000     700.00    79.0619  
    220.0000     700.00    77.2473  
    240.0000     700.00    75.5897  
    260.0000     700.00    74.0659  
    280.0000     700.00    72.6573  
    300.0000     700.00    71.3489  
    320.0000     700.00    70.1285  
    340.0000     700.00    68.9859  
    360.0000     700.00    67.9124  
    380.0000     700.00    66.9009  
    400.0000     700.00    65.9453  
    420.0000     700.00    65.0400  
    440.0000     700.00    64.1806  
    460.0000     700.00    63.3631  
    480.0000     700.00    62.5838  
    500.0000     700.00    61.8397  


      0.0000     750.00   128.2557  
     20.0000     750.00   115.2441  
     40.0000     750.00   106.8800  
     60.0000     750.00   100.7529  
     80.0000     750.00    95.9482  
    100.0000     750.00    92.0147  
    120.0000     750.00    88.6966  
    140.0000     750.00    85.8351  
    160.0000     750.00    83.3255  
    180.0000     750.00    81.0948  
    200.0000     750.00    79.0905  
    220.0000     750.00    77.2735  
    240.0000     750.00    75.6138  
    260.0000     750.00    74.0882  
    280.0000     750.00    72.6780  
    300.0000     750.00    71.3682  
    320.0000     750.00    70.1465  
    340.0000     750.00    69.0027  
    360.0000     750.00    67.9282  
    380.0000     750.00    66.9158  
    400.0000     750.00    65.9593  
    420.0000     750.00    65.0533  
    440.0000     750.00    64.1932  
    460.0000     750.00    63.3750  
    480.0000     750.00    62.5951  
    500.0000     750.00    61.8504  


      0.0000     800.00   128.5377  
     20.0000     800.00   115.4038  
     40.0000     800.00   106.9895  
     60.0000     800.00   100.8351  
     80.0000     800.00    96.0136  
    100.0000     800.00    92.0689  
    120.0000     800.00    88.7429  
    140.0000     800.00    85.8756  
    160.0000     800.00    83.3614  
    180.0000     800.00    81.1271  
    200.0000     800.00    79.1199  
    220.0000     800.00    77.3004  
    240.0000     800.00    75.6386  
    260.0000     800.00    74.1111  
    280.0000     800.00    72.6993  
    300.0000     800.00    71.3881  
    320.0000     800.00    70.1651  
    340.0000     800.00    69.0202  
    360.0000     800.00    67.9446  
    380.0000     800.00    66.9313  
    400.0000     800.00    65.9739  
    420.0000     800.00    65.0671  
    440.0000     800.00    64.2063  
    460.0000     800.00    63.3874  
    480.0000     800.00    62.6069  
    500.0000     800.00    61.8616  


      0.0000     850.00   128.8251  
     20.0000     850.00   115.5659  
     40.0000     850.00   107.1007  
     60.0000     850.00   100.9186  
     80.0000     850.00    96.0801  
    100.0000     850.00    92.1241  
    120.0000     850.00    88.7900  
    140.0000     850.00    85.9168  
    160.0000     850.00    83.3981  
    180.0000     850.00    81.1601  
    200.0000     850.00    79.1499  
    220.0000     850.00    77.3279  
    240.0000     850.00    75.6640  
    260.0000     850.00    74.1346  
    280.0000     850.00    72.7212  
    300.0000     850.00    71.4085  
    320.0000     850.00    70.1842  
    340.0000     850.00    69.0381  
    360.0000     850.00    67.9615  
    380.0000     850.00    66.9472  
    400.0000     850.00    65.9889  
    420.0000     850.00    65.0813  
    440.0000     850.00    64.2198  
    460.0000     850.00    63.4002  
    480.0000     850.00    62.6191  
    500.0000     850.00    61.8733  


      0.0000     900.00   129.1176  
     20.0000     900.00   115.7301  
     40.0000     900.00   107.2133  
     60.0000     900.00   101.0032  
     80.0000     900.00    96.1474  
    100.0000     900.00    92.1800  
    120.0000     900.00    88.8379  
    140.0000     900.00    85.9587  
    160.0000     900.00    83.4354  
    180.0000     900.00    81.1937  
    200.0000     900.00    79.1805  
    220.0000     900.00    77.3560  
    240.0000     900.00    75.6899  
    260.0000     900.00    74.1586  
    280.0000     900.00    72.7435  
    300.0000     900.00    71.4294  
    320.0000     900.00    70.2038  
    340.0000     900.00    69.0565  
    360.0000     900.00    67.9788  
    380.0000     900.00    66.9635  
    400.0000     900.00    66.0044  
    420.0000     900.00    65.0960  
    440.0000     900.00    64.2337  
    460.0000     900.00    63.4134  
    480.0000     900.00    62.6316  
    500.0000     900.00    61.8852  


      0.0000     950.00   129.4153  
     20.0000     950.00   115.8965  
     40.0000     950.00   107.3273  
     60.0000     950.00   101.0888  
     80.0000     950.00    96.2157  
    100.0000     950.00    92.2367  
    120.0000     950.00    88.8864  
    140.0000     950.00    86.0012  
    160.0000     950.00    83.4732  
    180.0000     950.00    81.2279  
    200.0000     950.00    79.2116  
    220.0000     950.00    77.3845  
    240.0000     950.00    75.7162  
    260.0000     950.00    74.1831  
    280.0000     950.00    72.7663  
    300.0000     950.00    71.4506  
    320.0000     950.00    70.2237  
    340.0000     950.00    69.0752  
    360.0000     950.00    67.9965  
    380.0000     950.00    66.9802  
    400.0000     950.00    66.0202  
    420.0000     950.00    65.1109  
    440.0000     950.00    64.2479  
    460.0000     950.00    63.4269  
    480.0000     950.00    62.6445  
    500.0000     950.00    61.8975  


      0.0000    1000.00   129.7181  
     20.0000    1000.00   116.0648  
     40.0000    1000.00   107.4426  
     60.0000    1000.00   101.1753  
     80.0000    1000.00    96.2846  
    100.0000    1000.00    92.2939  
    120.0000    1000.00    88.9355  
    140.0000    1000.00    86.0442  
    160.0000    1000.00    83.5115  
    180.0000    1000.00    81.2624  
    200.0000    1000.00    79.2431  
    220.0000    1000.00    77.4134  
    240.0000    1000.00    75.7429  
    260.0000    1000.00    74.2079  
    280.0000    1000.00    72.7894  
    300.0000    1000.00    71.4723  
    320.0000    1000.00    70.2440  
    340.0000    1000.00    69.0943  
    360.0000    1000.00    68.0145  
    380.0000    1000.00    66.9972  
    400.0000    1000.00    66.0363  
    420.0000    1000.00    65.1262  
    440.0000    1000.00    64.2624  
    460.0000    1000.00    63.4407  
    480.0000    1000.00    62.6577  
    500.0000    1000.00    61.9101  


      0.0000    1050.00   130.0262  
     20.0000    1050.00   116.2350  
     40.0000    1050.00   107.5590  
     60.0000    1050.00   101.2628  
     80.0000    1050.00    96.3543  
    100.0000    1050.00    92.3518  
    120.0000    1050.00    88.9851  
    140.0000    1050.00    86.0876  
    160.0000    1050.00    83.5502  
    180.0000    1050.00    81.2974  
    200.0000    1050.00    79.2750  
    220.0000    1050.00    77.4427  
    240.0000    1050.00    75.7700  
    260.0000    1050.00    74.2330  
    280.0000    1050.00    72.8129  
    300.0000    1050.00    71.4942  
    320.0000    1050.00    70.2646  
    340.0000    1050.00    69.1137  
    360.0000    1050.00    68.0328  
    380.0000    1050.00    67.0145  
    400.0000    1050.00    66.0526  
    420.0000    1050.00    65.1417  
    440.0000    1050.00    64.2772  
    460.0000    1050.00    63.4548  
    480.0000    1050.00    62.6711  
    500.0000    1050.00    61.9229  


      0.0000    1100.00   130.3395  
     20.0000    1100.00   116.4071  
     40.0000    1100.00   107.6766  
     60.0000    1100.00   101.3510  
     80.0000    1100.00    96.4245  
    100.0000    1100.00    92.4102  
    120.0000    1100.00    89.0351  
    140.0000    1100.00    86.1315  
    160.0000    1100.00    83.5894  
    180.0000    1100.00    81.3328  
    200.0000    1100.00    79.3072  
    220.0000    1100.00    77.4723  
    240.0000    1100.00    75.7974  
    260.0000    1100.00    74.2585  
    280.0000    1100.00    72.8366  
    300.0000    1100.00    71.5165  
    320.0000    1100.00    70.2855  
    340.0000    1100.00    69.1334  
    360.0000    1100.00    68.0513  
    380.0000    1100.00    67.0321  
    400.0000    1100.00    66.0693  
    420.0000    1100.00    65.1575  
    440.0000    1100.00    64.2922  
    460.0000    1100.00    63.4691  
    480.0000    1100.00    62.6848  
    500.0000    1100.00    61.9359  


      0.0000    1150.00   130.6582  
     20.0000    1150.00   116.5810  
     40.0000    1150.00   107.7953  
     60.0000    1150.00   101.4399  
     80.0000    1150.00    96.4954  
    100.0000    1150.00    92.4691  
    120.0000    1150.00    89.0856  
    140.0000    1150.00    86.1757  
    160.0000    1150.00    83.6288  
    180.0000    1150.00    81.3684  
    200.0000    1150.00    79.3398  
    220.0000    1150.00    77.5023  
    240.0000    1150.00    75.8251  
    260.0000    1150.00    74.2842  
    280.0000    1150.00    72.8606  
    300.0000    1150.00    71.5390  
    320.0000    1150.00    70.3066  
    340.0000    1150.00    69.1533  
    360.0000    1150.00    68.0701  
    380.0000    1150.00    67.0498  
    400.0000    1150.00    66.0861  
    420.0000    1150.00    65.1735  
    440.0000    1150.00    64.3074  
    460.0000    1150.00    63.4836  
    480.0000    1150.00    62.6986  
    500.0000    1150.00    61.9492  


      0.0000    1200.00   130.9825  
     20.0000    1200.00   116.7566  
     40.0000    1200.00   107.9149  
     60.0000    1200.00   101.5296  
     80.0000    1200.00    96.5668  
    100.0000    1200.00    92.5284  
    120.0000    1200.00    89.1364  
    140.0000    1200.00    86.2203  
    160.0000    1200.00    83.6686  
    180.0000    1200.00    81.4044  
    200.0000    1200.00    79.3726  
    220.0000    1200.00    77.5324  
    240.0000    1200.00    75.8530  
    260.0000    1200.00    74.3102  
    280.0000    1200.00    72.8849  
    300.0000    1200.00    71.5617  
    320.0000    1200.00    70.3280  
    340.0000    1200.00    69.1734  
    360.0000    1200.00    68.0891  
    380.0000    1200.00    67.0678  
    400.0000    1200.00    66.1032  
    420.0000    1200.00    65.1897  
    440.0000    1200.00    64.3228  
    460.0000    1200.00    63.4983  
    480.0000    1200.00    62.7126  
    500.0000    1200.00    61.9626  


      0.0000    1250.00   131.3124  
     20.0000    1250.00   116.9340  
     40.0000    1250.00   108.0356  
     60.0000    1250.00   101.6200  
     80.0000    1250.00    96.6387  
    100.0000    1250.00    92.5881  
    120.0000    1250.00    89.1876  
    140.0000    1250.00    86.2652  
    160.0000    1250.00    83.7087  
    180.0000    1250.00    81.4406  
    200.0000    1250.00    79.4056  
    220.0000    1250.00    77.5628  
    240.0000    1250.00    75.8812  
    260.0000    1250.00    74.3364  
    280.0000    1250.00    72.9093  
    300.0000    1250.00    71.5846  
    320.0000    1250.00    70.3495  
    340.0000    1250.00    69.1937  
    360.0000    1250.00    68.1083  
    380.0000    1250.00    67.0860  
    400.0000    1250.00    66.1204  
    420.0000    1250.00    65.2061  
    440.0000    1250.00    64.3384  
    460.0000    1250.00    63.5132  
    480.0000    1250.00    62.7268  
    500.0000    1250.00    61.9762  


      0.0000    1300.00   131.6482  
     20.0000    1300.00   117.1130  
     40.0000    1300.00   108.1572  
     60.0000    1300.00   101.7110  
     80.0000    1300.00    96.7111  
    100.0000    1300.00    92.6483  
    120.0000    1300.00    89.2391  
    140.0000    1300.00    86.3104  
    160.0000    1300.00    83.7490  
    180.0000    1300.00    81.4770  
    200.0000    1300.00    79.4389  
    220.0000    1300.00    77.5935  
    240.0000    1300.00    75.9095  
    260.0000    1300.00    74.3628  
    280.0000    1300.00    72.9340  
    300.0000    1300.00    71.6077  
    320.0000    1300.00    70.3712  
    340.0000    1300.00    69.2141  
    360.0000    1300.00    68.1276  
    380.0000    1300.00    67.1043  
    400.0000    1300.00    66.1378  
    420.0000    1300.00    65.2226  
    440.0000    1300.00    64.3541  
    460.0000    1300.00    63.5282  
    480.0000    1300.00    62.7411  
    500.0000    1300.00    61.9899  


      0.0000    1350.00   131.9901  
     20.0000    1350.00   117.2938  
     40.0000    1350.00   108.2798  
     60.0000    1350.00   101.8026  
     80.0000    1350.00    96.7839  
    100.0000    1350.00    92.7087  
    120.0000    1350.00    89.2909  
    140.0000    1350.00    86.3559  
    160.0000    1350.00    83.7895  
    180.0000    1350.00    81.5137  
    200.0000    1350.00    79.4724  
    220.0000    1350.00    77.6243  
    240.0000    1350.00    75.9381  
    260.0000    1350.00    74.3893  
    280.0000    1350.00    72.9588  
    300.0000    1350.00    71.6310  
    320.0000    1350.00    70.3931  
    340.0000    1350.00    69.2348  
    360.0000    1350.00    68.1471  
    380.0000    1350.00    67.1228  
    400.0000    1350.00    66.1553  
    420.0000    1350.00    65.2393  
    440.0000    1350.00    64.3700  
    460.0000    1350.00    63.5433  
    480.0000    1350.00    62.7556  
    500.0000    1350.00    62.0037  


      0.0000    1400.00   132.3383  
     20.0000    1400.00   117.4762  
     40.0000    1400.00   108.4032  
     60.0000    1400.00   101.8948  
     80.0000    1400.00    96.8572  
    100.0000    1400.00    92.7696  
    120.0000    1400.00    89.3430  
    140.0000    1400.00    86.4016  
    160.0000    1400.00    83.8303  
    180.0000    1400.00    81.5506  
    200.0000    1400.00    79.5061  
    220.0000    1400.00    77.6553  
    240.0000    1400.00    75.9668  
    260.0000    1400.00    74.4160  
    280.0000    1400.00    72.9838  
    300.0000    1400.00    71.6544  
    320.0000    1400.00    70.4152  
    340.0000    1400.00    69.2556  
    360.0000    1400.00    68.1668  
    380.0000    1400.00    67.1414  
    400.0000    1400.00    66.1730  
    420.0000    1400.00    65.2561  
    440.0000    1400.00    64.3860  
    460.0000    1400.00    63.5586  
    480.0000    1400.00    62.7702  
    500.0000    1400.00    62.0177  


      0.0000    1450.00   132.6931  
     20.0000    1450.00   117.6604  
     40.0000    1450.00   108.5276  
     60.0000    1450.00   101.9877  
     80.0000    1450.00    96.9309  
    100.0000    1450.00    92.8307  
    120.0000    1450.00    89.3954  
    140.0000    1450.00    86.4475  
    160.0000    1450.00    83.8713  
    180.0000    1450.00    81.5876  
    200.0000    1450.00    79.5399  
    220.0000    1450.00    77.6865  
    240.0000    1450.00    75.9956  
    260.0000    1450.00    74.4429  
    280.0000    1450.00    73.0089  
    300.0000    1450.00    71.6780  
    320.0000    1450.00    70.4373  
    340.0000    1450.00    69.2765  
    360.0000    1450.00    68.1866  
    380.0000    1450.00    67.1601  
    400.0000    1450.00    66.1907  
    420.0000    1450.00    65.2730  
    440.0000    1450.00    64.4021  
    460.0000    1450.00    63.5740  
    480.0000    1450.00    62.7849  
    500.0000    1450.00    62.0317  


      0.0000    1500.00   133.0548  
     20.0000    1500.00   117.8462  
     40.0000    1500.00   108.6529  
     60.0000    1500.00   102.0811  
     80.0000    1500.00    97.0050  
    100.0000    1500.00    92.8922  
    120.0000    1500.00    89.4481  
    140.0000    1500.00    86.4936  
    160.0000    1500.00    83.9125  
    180.0000    1500.00    81.6249  
    200.0000    1500.00    79.5740  
    220.0000    1500.00    77.7178  
    240.0000    1500.00    76.0247  
    260.0000    1500.00    74.4699  
    280.0000    1500.00    73.0342  
    300.0000    1500.00    71.7017  
    320.0000    1500.00    70.4596  
    340.0000    1500.00    69.2975  
    360.0000    1500.00    68.2065  
    380.0000    1500.00    67.1790  
    400.0000    1500.00    66.2087  
    420.0000    1500.00    65.2900  
    440.0000    1500.00    64.4183  
    460.0000    1500.00    63.5894  
    480.0000    1500.00    62.7997  
    500.0000    1500.00    62.0459  


      0.0000    1550.00   133.4238  
     20.0000    1550.00   118.0337  
     40.0000    1550.00   108.7791  
     60.0000    1550.00   102.1750  
     80.0000    1550.00    97.0795  
    100.0000    1550.00    92.9539  
    120.0000    1550.00    89.5009  
    140.0000    1550.00    86.5400  
    160.0000    1550.00    83.9539  
    180.0000    1550.00    81.6623  
    200.0000    1550.00    79.6081  
    220.0000    1550.00    77.7493  
    240.0000    1550.00    76.0538  
    260.0000    1550.00    74.4971  
    280.0000    1550.00    73.0595  
    300.0000    1550.00    71.7255  
    320.0000    1550.00    70.4821  
    340.0000    1550.00    69.3187  
    360.0000    1550.00    68.2265  
    380.0000    1550.00    67.1979  
    400.0000    1550.00    66.2267  
    420.0000    1550.00    65.3072  
    440.0000    1550.00    64.4347  
    460.0000    1550.00    63.6050  
    480.0000    1550.00    62.8146  
    500.0000    1550.00    62.0602  


      0.0000    1600.00   133.8003  
     20.0000    1600.00   118.2229  
     40.0000    1600.00   108.9061  
     60.0000    1600.00   102.2695  
     80.0000    1600.00    97.1544  
    100.0000    1600.00    93.0160  
    120.0000    1600.00    89.5540  
    140.0000    1600.00    86.5866  
    160.0000    1600.00    83.9954  
    180.0000    1600.00    81.6999  
    200.0000    1600.00    79.6425  
    220.0000    1600.00    77.7809  
    240.0000    1600.00    76.0831  
    260.0000    1600.00    74.5244  
    280.0000    1600.00    73.0851  
    300.0000    1600.00    71.7494  
    320.0000    1600.00    70.5046  
    340.0000    1600.00    69.3399  
    360.0000    1600.00    68.2466  
    380.0000    1600.00    67.2170  
    400.0000    1600.00    66.2448  
    420.0000    1600.00    65.3244  
    440.0000    1600.00    64.4511  
    460.0000    1600.00    63.6207  
    480.0000    1600.00    62.8296  
    500.0000    1600.00    62.0745  


      0.0000    1650.00   134.1849  
     20.0000    1650.00   118.4138  
     40.0000    1650.00   109.0341  
     60.0000    1650.00   102.3646  
     80.0000    1650.00    97.2297  
    100.0000    1650.00    93.0783  
    120.0000    1650.00    89.6074  
    140.0000    1650.00    86.6333  
    160.0000    1650.00    84.0371  
    180.0000    1650.00    81.7376  
    200.0000    1650.00    79.6769  
    220.0000    1650.00    77.8126  
    240.0000    1650.00    76.1125  
    260.0000    1650.00    74.5518  
    280.0000    1650.00    73.1107  
    300.0000    1650.00    71.7734  
    320.0000    1650.00    70.5272  
    340.0000    1650.00    69.3613  
    360.0000    1650.00    68.2668  
    380.0000    1650.00    67.2361  
    400.0000    1650.00    66.2630  
    420.0000    1650.00    65.3417  
    440.0000    1650.00    64.4676  
    460.0000    1650.00    63.6365  
    480.0000    1650.00    62.8447  
    500.0000    1650.00    62.0890  


      0.0000    1700.00   134.5779  
     20.0000    1700.00   118.6065  
     40.0000    1700.00   109.1628  
     60.0000    1700.00   102.4602  
     80.0000    1700.00    97.3053  
    100.0000    1700.00    93.1409  
    120.0000    1700.00    89.6609  
    140.0000    1700.00    86.6802  
    160.0000    1700.00    84.0790  
    180.0000    1700.00    81.7754  
    200.0000    1700.00    79.7115  
    220.0000    1700.00    77.8445  
    240.0000    1700.00    76.1420  
    260.0000    1700.00    74.5793  
    280.0000    1700.00    73.1364  
    300.0000    1700.00    71.7976  
    320.0000    1700.00    70.5499  
    340.0000    1700.00    69.3827  
    360.0000    1700.00    68.2871  
    380.0000    1700.00    67.2554  
    400.0000    1700.00    66.2812  
    420.0000    1700.00    65.3591  
    440.0000    1700.00    64.4842  
    460.0000    1700.00    63.6523  
    480.0000    1700.00    62.8598  
    500.0000    1700.00    62.1035  


      0.0000    1750.00   134.9800  
     20.0000    1750.00   118.8008  
     40.0000    1750.00   109.2925  
     60.0000    1750.00   102.5563  
     80.0000    1750.00    97.3813  
    100.0000    1750.00    93.2038  
    120.0000    1750.00    89.7147  
    140.0000    1750.00    86.7273  
    160.0000    1750.00    84.1210  
    180.0000    1750.00    81.8134  
    200.0000    1750.00    79.7462  
    220.0000    1750.00    77.8764  
    240.0000    1750.00    76.1717  
    260.0000    1750.00    74.6068  
    280.0000    1750.00    73.1622  
    300.0000    1750.00    71.8218  
    320.0000    1750.00    70.5727  
    340.0000    1750.00    69.4043  
    360.0000    1750.00    68.3075  
    380.0000    1750.00    67.2747  
    400.0000    1750.00    66.2996  
    420.0000    1750.00    65.3766  
    440.0000    1750.00    64.5009  
    460.0000    1750.00    63.6682  
    480.0000    1750.00    62.8750  
    500.0000    1750.00    62.1181  


      0.0000    1800.00   135.3916  
     20.0000    1800.00   118.9969  
     40.0000    1800.00   109.4230  
     60.0000    1800.00   102.6529  
     80.0000    1800.00    97.4577  
    100.0000    1800.00    93.2669  
    120.0000    1800.00    89.7686  
    140.0000    1800.00    86.7746  
    160.0000    1800.00    84.1631  
    180.0000    1800.00    81.8515  
    200.0000    1800.00    79.7810  
    220.0000    1800.00    77.9085  
    240.0000    1800.00    76.2014  
    260.0000    1800.00    74.6345  
    280.0000    1800.00    73.1881  
    300.0000    1800.00    71.8461  
    320.0000    1800.00    70.5956  
    340.0000    1800.00    69.4259  
    360.0000    1800.00    68.3279  
    380.0000    1800.00    67.2941  
    400.0000    1800.00    66.3180  
    420.0000    1800.00    65.3941  
    440.0000    1800.00    64.5176  
    460.0000    1800.00    63.6842  
    480.0000    1800.00    62.8903  
    500.0000    1800.00    62.1327  


      0.0000    1850.00   135.8136  
     20.0000    1850.00   119.1948  
     40.0000    1850.00   109.5544  
     60.0000    1850.00   102.7501  
     80.0000    1850.00    97.5344  
    100.0000    1850.00    93.3303  
    120.0000    1850.00    89.8228  
    140.0000    1850.00    86.8220  
    160.0000    1850.00    84.2054  
    180.0000    1850.00    81.8898  
    200.0000    1850.00    79.8160  
    220.0000    1850.00    77.9407  
    240.0000    1850.00    76.2312  
    260.0000    1850.00    74.6623  
    280.0000    1850.00    73.2141  
    300.0000    1850.00    71.8705  
    320.0000    1850.00    70.6186  
    340.0000    1850.00    69.4476  
    360.0000    1850.00    68.3484  
    380.0000    1850.00    67.3136  
    400.0000    1850.00    66.3365  
    420.0000    1850.00    65.4117  
    440.0000    1850.00    64.5344  
    460.0000    1850.00    63.7003  
    480.0000    1850.00    62.9057  
    500.0000    1850.00    62.1474  


      0.0000    1900.00   136.2465  
     20.0000    1900.00   119.3944  
     40.0000    1900.00   109.6867  
     60.0000    1900.00   102.8478  
     80.0000    1900.00    97.6114  
    100.0000    1900.00    93.3940  
    120.0000    1900.00    89.8771  
    140.0000    1900.00    86.8696  
    160.0000    1900.00    84.2479  
    180.0000    1900.00    81.9281  
    200.0000    1900.00    79.8510  
    220.0000    1900.00    77.9729  
    240.0000    1900.00    76.2611  
    260.0000    1900.00    74.6902  
    280.0000    1900.00    73.2402  
    300.0000    1900.00    71.8950  
    320.0000    1900.00    70.6417  
    340.0000    1900.00    69.4694  
    360.0000    1900.00    68.3690  
    380.0000    1900.00    67.3331  
    400.0000    1900.00    66.3551  
    420.0000    1900.00    65.4294  
    440.0000    1900.00    64.5512  
    460.0000    1900.00    63.7164  
    480.0000    1900.00    62.9211  
    500.0000    1900.00    62.1622  


      0.0000    1950.00   136.6913  
     20.0000    1950.00   119.5958  
     40.0000    1950.00   109.8198  
     60.0000    1950.00   102.9460  
     80.0000    1950.00    97.6888  
    100.0000    1950.00    93.4578  
    120.0000    1950.00    89.9317  
    140.0000    1950.00    86.9173  
    160.0000    1950.00    84.2904  
    180.0000    1950.00    81.9666  
    200.0000    1950.00    79.8861  
    220.0000    1950.00    78.0053  
    240.0000    1950.00    76.2911  
    260.0000    1950.00    74.7181  
    280.0000    1950.00    73.2663  
    300.0000    1950.00    71.9196  
    320.0000    1950.00    70.6648  
    340.0000    1950.00    69.4912  
    360.0000    1950.00    68.3897  
    380.0000    1950.00    67.3527  
    400.0000    1950.00    66.3737  
    420.0000    1950.00    65.4472  
    440.0000    1950.00    64.5682  
    460.0000    1950.00    63.7325  
    480.0000    1950.00    62.9365  
    500.0000    1950.00    62.1770  


      0.0000    2000.00   137.1490  
     20.0000    2000.00   119.7991  
     40.0000    2000.00   109.9538  
     60.0000    2000.00   103.0447  
     80.0000    2000.00    97.7665  
    100.0000    2000.00    93.5219  
    120.0000    2000.00    89.9864  
    140.0000    2000.00    86.9652  
    160.0000    2000.00    84.3331  
    180.0000    2000.00    82.0052  
    200.0000    2000.00    79.9214  
    220.0000    2000.00    78.0377  
    240.0000    2000.00    76.3212  
    260.0000    2000.00    74.7462  
    280.0000    2000.00    73.2925  
    300.0000    2000.00    71.9442  
    320.0000    2000.00    70.6880  
    340.0000    2000.00    69.5131  
    360.0000    2000.00    68.4104  
    380.0000    2000.00    67.3724  
    400.0000    2000.00    66.3924  
    420.0000    2000.00    65.4650  
    440.0000    2000.00    64.5851  
    460.0000    2000.00    63.7487  
    480.0000    2000.00    62.9521  
    500.0000    2000.00    62.1918  


      0.0000    2050.00   137.6206  
     20.0000    2050.00   120.0042  
     40.0000    2050.00   110.0886  
     60.0000    2050.00   103.1439  
     80.0000    2050.00    97.8446  
    100.0000    2050.00    93.5863  
    120.0000    2050.00    90.0413  
    140.0000    2050.00    87.0132  
    160.0000    2050.00    84.3759  
    180.0000    2050.00    82.0438  
    200.0000    2050.00    79.9567  
    220.0000    2050.00    78.0703  
    240.0000    2050.00    76.3513  
    260.0000    2050.00    74.7743  
    280.0000    2050.00    73.3188  
    300.0000    2050.00    71.9689  
    320.0000    2050.00    70.7112  
    340.0000    2050.00    69.5351  
    360.0000    2050.00    68.4312  
    380.0000    2050.00    67.3921  
    400.0000    2050.00    66.4112  
    420.0000    2050.00    65.4828  
    440.0000    2050.00    64.6022  
    460.0000    2050.00    63.7650  
    480.0000    2050.00    62.9676  
    500.0000    2050.00    62.2068  


      0.0000    2100.00   138.1075  
     20.0000    2100.00   120.2112  
     40.0000    2100.00   110.2244  
     60.0000    2100.00   103.2436  
     80.0000    2100.00    97.9230  
    100.0000    2100.00    93.6509  
    120.0000    2100.00    90.0964  
    140.0000    2100.00    87.0613  
    160.0000    2100.00    84.4188  
    180.0000    2100.00    82.0826  
    200.0000    2100.00    79.9921  
    220.0000    2100.00    78.1029  
    240.0000    2100.00    76.3816  
    260.0000    2100.00    74.8024  
    280.0000    2100.00    73.3452  
    300.0000    2100.00    71.9936  
    320.0000    2100.00    70.7346  
    340.0000    2100.00    69.5571  
    360.0000    2100.00    68.4521  
    380.0000    2100.00    67.4119  
    400.0000    2100.00    66.4300  
    420.0000    2100.00    65.5007  
    440.0000    2100.00    64.6192  
    460.0000    2100.00    63.7813  
    480.0000    2100.00    62.9832  
    500.0000    2100.00    62.2217  


      0.0000    2150.00   138.6112  
     20.0000    2150.00   120.4201  
     40.0000    2150.00   110.3610  
     60.0000    2150.00   103.3439  
     80.0000    2150.00    98.0017  
    100.0000    2150.00    93.7157  
    120.0000    2150.00    90.1516  
    140.0000    2150.00    87.1096  
    160.0000    2150.00    84.4618  
    180.0000    2150.00    82.1215  
    200.0000    2150.00    80.0276  
    220.0000    2150.00    78.1356  
    240.0000    2150.00    76.4119  
    260.0000    2150.00    74.8307  
    280.0000    2150.00    73.3716  
    300.0000    2150.00    72.0185  
    320.0000    2150.00    70.7579  
    340.0000    2150.00    69.5792  
    360.0000    2150.00    68.4730  
    380.0000    2150.00    67.4317  
    400.0000    2150.00    66.4488  
    420.0000    2150.00    65.5187  
    440.0000    2150.00    64.6364  
    460.0000    2150.00    63.7977  
    480.0000    2150.00    62.9989  
    500.0000    2150.00    62.2367  


      0.0000    2200.00   139.1335  
     20.0000    2200.00   120.6310  
     40.0000    2200.00   110.4985  
     60.0000    2200.00   103.4447  
     80.0000    2200.00    98.0808  
    100.0000    2200.00    93.7808  
    120.0000    2200.00    90.2070  
    140.0000    2200.00    87.1581  
    160.0000    2200.00    84.5049  
    180.0000    2200.00    82.1604  
    200.0000    2200.00    80.0632  
    220.0000    2200.00    78.1684  
    240.0000    2200.00    76.4423  
    260.0000    2200.00    74.8590  
    280.0000    2200.00    73.3981  
    300.0000    2200.00    72.0433  
    320.0000    2200.00    70.7814  
    340.0000    2200.00    69.6013  
    360.0000    2200.00    68.4939  
    380.0000    2200.00    67.4516  
    400.0000    2200.00    66.4677  
    420.0000    2200.00    65.5367  
    440.0000    2200.00    64.6535  
    460.0000    2200.00    63.8141  
    480.0000    2200.00    63.0146  
    500.0000    2200.00    62.2518  


      0.0000    2250.00   139.6766  
     20.0000    2250.00   120.8438  
     40.0000    2250.00   110.6369  
     60.0000    2250.00   103.5460  
     80.0000    2250.00    98.1602  
    100.0000    2250.00    93.8460  
    120.0000    2250.00    90.2626  
    140.0000    2250.00    87.2066  
    160.0000    2250.00    84.5482  
    180.0000    2250.00    82.1995  
    200.0000    2250.00    80.0989  
    220.0000    2250.00    78.2012  
    240.0000    2250.00    76.4727  
    260.0000    2250.00    74.8873  
    280.0000    2250.00    73.4247  
    300.0000    2250.00    72.0683  
    320.0000    2250.00    70.8049  
    340.0000    2250.00    69.6235  
    360.0000    2250.00    68.5149  
    380.0000    2250.00    67.4715  
    400.0000    2250.00    66.4867  
    420.0000    2250.00    65.5547  
    440.0000    2250.00    64.6708  
    460.0000    2250.00    63.8305  
    480.0000    2250.00    63.0303  
    500.0000    2250.00    62.2669  


      0.0000    2300.00   140.2431  
     20.0000    2300.00   121.0586  
     40.0000    2300.00   110.7762  
     60.0000    2300.00   103.6478  
     80.0000    2300.00    98.2399  
    100.0000    2300.00    93.9115  
    120.0000    2300.00    90.3183  
    140.0000    2300.00    87.2553  
    160.0000    2300.00    84.5915  
    180.0000    2300.00    82.2386  
    200.0000    2300.00    80.1346  
    220.0000    2300.00    78.2341  
    240.0000    2300.00    76.5032  
    260.0000    2300.00    74.9158  
    280.0000    2300.00    73.4513  
    300.0000    2300.00    72.0932  
    320.0000    2300.00    70.8284  
    340.0000    2300.00    69.6457  
    360.0000    2300.00    68.5360  
    380.0000    2300.00    67.4915  
    400.0000    2300.00    66.5057  
    420.0000    2300.00    65.5728  
    440.0000    2300.00    64.6880  
    460.0000    2300.00    63.8470  
    480.0000    2300.00    63.0461  
    500.0000    2300.00    62.2820  


      0.0000    2350.00   140.8362  
     20.0000    2350.00   121.2754  
     40.0000    2350.00   110.9164  
     60.0000    2350.00   103.7501  
     80.0000    2350.00    98.3199  
    100.0000    2350.00    93.9773  
    120.0000    2350.00    90.3742  
    140.0000    2350.00    87.3041  
    160.0000    2350.00    84.6349  
    180.0000    2350.00    82.2779  
    200.0000    2350.00    80.1704  
    220.0000    2350.00    78.2671  
    240.0000    2350.00    76.5338  
    260.0000    2350.00    74.9443  
    280.0000    2350.00    73.4779  
    300.0000    2350.00    72.1183  
    320.0000    2350.00    70.8520  
    340.0000    2350.00    69.6680  
    360.0000    2350.00    68.5571  
    380.0000    2350.00    67.5115  
    400.0000    2350.00    66.5247  
    420.0000    2350.00    65.5909  
    440.0000    2350.00    64.7053  
    460.0000    2350.00    63.8636  
    480.0000    2350.00    63.0619  
    500.0000    2350.00    62.2971  


      0.0000    2400.00   141.4599  
     20.0000    2400.00   121.4943  
     40.0000    2400.00   111.0575  
     60.0000    2400.00   103.8529  
     80.0000    2400.00    98.4003  
    100.0000    2400.00    94.0432  
    120.0000    2400.00    90.4303  
    140.0000    2400.00    87.3531  
    160.0000    2400.00    84.6785  
    180.0000    2400.00    82.3172  
    200.0000    2400.00    80.2063  
    220.0000    2400.00    78.3002  
    240.0000    2400.00    76.5644  
    260.0000    2400.00    74.9728  
    280.0000    2400.00    73.5046  
    300.0000    2400.00    72.1434  
    320.0000    2400.00    70.8756  
    340.0000    2400.00    69.6903  
    360.0000    2400.00    68.5782  
    380.0000    2400.00    67.5316  
    400.0000    2400.00    66.5438  
    420.0000    2400.00    65.6091  
    440.0000    2400.00    64.7226  
    460.0000    2400.00    63.8801  
    480.0000    2400.00    63.0778  
    500.0000    2400.00    62.3123  


      0.0000    2450.00   142.1194  
     20.0000    2450.00   121.7153  
     40.0000    2450.00   111.1995  
     60.0000    2450.00   103.9563  
     80.0000    2450.00    98.4810  
    100.0000    2450.00    94.1094  
    120.0000    2450.00    90.4866  
    140.0000    2450.00    87.4021  
    160.0000    2450.00    84.7222  
    180.0000    2450.00    82.3566  
    200.0000    2450.00    80.2423  
    220.0000    2450.00    78.3333  
    240.0000    2450.00    76.5951  
    260.0000    2450.00    75.0014  
    280.0000    2450.00    73.5314  
    300.0000    2450.00    72.1685  
    320.0000    2450.00    70.8993  
    340.0000    2450.00    69.7127  
    360.0000    2450.00    68.5994  
    380.0000    2450.00    67.5517  
    400.0000    2450.00    66.5629  
    420.0000    2450.00    65.6273  
    440.0000    2450.00    64.7400  
    460.0000    2450.00    63.8967  
    480.0000    2450.00    63.0937  
    500.0000    2450.00    62.3276  


      0.0000    2500.00   142.8213  
     20.0000    2500.00   121.9384  
     40.0000    2500.00   111.3425  
     60.0000    2500.00   104.0602  
     80.0000    2500.00    98.5620  
    100.0000    2500.00    94.1758  
    120.0000    2500.00    90.5430  
    140.0000    2500.00    87.4513  
    160.0000    2500.00    84.7659  
    180.0000    2500.00    82.3961  
    200.0000    2500.00    80.2784  
    220.0000    2500.00    78.3665  
    240.0000    2500.00    76.6259  
    260.0000    2500.00    75.0301  
    280.0000    2500.00    73.5582  
    300.0000    2500.00    72.1937  
    320.0000    2500.00    70.9230  
    340.0000    2500.00    69.7351  
    360.0000    2500.00    68.6206  
    380.0000    2500.00    67.5718  
    400.0000    2500.00    66.5820  
    420.0000    2500.00    65.6455  
    440.0000    2500.00    64.7574  
    460.0000    2500.00    63.9134  
    480.0000    2500.00    63.1096  
    500.0000    2500.00    62.3428  


      0.0000    2550.00   143.5749  
     20.0000    2550.00   122.1638  
     40.0000    2550.00   111.4864  
     60.0000    2550.00   104.1646  
     80.0000    2550.00    98.6434  
    100.0000    2550.00    94.2424  
    120.0000    2550.00    90.5995  
    140.0000    2550.00    87.5006  
    160.0000    2550.00    84.8098  
    180.0000    2550.00    82.4357  
    200.0000    2550.00    80.3145  
    220.0000    2550.00    78.3997  
    240.0000    2550.00    76.6567  
    260.0000    2550.00    75.0588  
    280.0000    2550.00    73.5851  
    300.0000    2550.00    72.2189  
    320.0000    2550.00    70.9468  
    340.0000    2550.00    69.7576  
    360.0000    2550.00    68.6419  
    380.0000    2550.00    67.5920  
    400.0000    2550.00    66.6012  
    420.0000    2550.00    65.6638  
    440.0000    2550.00    64.7749  
    460.0000    2550.00    63.9300  
    480.0000    2550.00    63.1256  
    500.0000    2550.00    62.3581  


      0.0000    2600.00   144.3928  
     20.0000    2600.00   122.3914  
     40.0000    2600.00   111.6312  
     60.0000    2600.00   104.2696  
     80.0000    2600.00    98.7251  
    100.0000    2600.00    94.3093  
    120.0000    2600.00    90.6562  
    140.0000    2600.00    87.5501  
    160.0000    2600.00    84.8537  
    180.0000    2600.00    82.4753  
    200.0000    2600.00    80.3507  
    220.0000    2600.00    78.4330  
    240.0000    2600.00    76.6876  
    260.0000    2600.00    75.0876  
    280.0000    2600.00    73.6120  
    300.0000    2600.00    72.2442  
    320.0000    2600.00    70.9706  
    340.0000    2600.00    69.7801  
    360.0000    2600.00    68.6632  
    380.0000    2600.00    67.6122  
    400.0000    2600.00    66.6205  
    420.0000    2600.00    65.6821  
    440.0000    2600.00    64.7923  
    460.0000    2600.00    63.9467  
    480.0000    2600.00    63.1415  
    500.0000    2600.00    62.3734  


      0.0000    2650.00   145.2942  
     20.0000    2650.00   122.6212  
     40.0000    2650.00   111.7770  
     60.0000    2650.00   104.3751  
     80.0000    2650.00    98.8071  
    100.0000    2650.00    94.3763  
    120.0000    2650.00    90.7131  
    140.0000    2650.00    87.5996  
    160.0000    2650.00    84.8977  
    180.0000    2650.00    82.5151  
    200.0000    2650.00    80.3869  
    220.0000    2650.00    78.4664  
    240.0000    2650.00    76.7185  
    260.0000    2650.00    75.1164  
    280.0000    2650.00    73.6390  
    300.0000    2650.00    72.2696  
    320.0000    2650.00    70.9945  
    340.0000    2650.00    69.8026  
    360.0000    2650.00    68.6846  
    380.0000    2650.00    67.6325  
    400.0000    2650.00    66.6397  
    420.0000    2650.00    65.7005  
    440.0000    2650.00    64.8098  
    460.0000    2650.00    63.9635  
    480.0000    2650.00    63.1576  
    500.0000    2650.00    62.3888  


      0.0000    2700.00   146.3098  
     20.0000    2700.00   122.8534  
     40.0000    2700.00   111.9238  
     60.0000    2700.00   104.4811  
     80.0000    2700.00    98.8895  
    100.0000    2700.00    94.4436  
    120.0000    2700.00    90.7702  
    140.0000    2700.00    87.6493  
    160.0000    2700.00    84.9419  
    180.0000    2700.00    82.5549  
    200.0000    2700.00    80.4232  
    220.0000    2700.00    78.4998  
    240.0000    2700.00    76.7495  
    260.0000    2700.00    75.1452  
    280.0000    2700.00    73.6660  
    300.0000    2700.00    72.2949  
    320.0000    2700.00    71.0184  
    340.0000    2700.00    69.8252  
    360.0000    2700.00    68.7059  
    380.0000    2700.00    67.6528  
    400.0000    2700.00    66.6590  
    420.0000    2700.00    65.7189  
    440.0000    2700.00    64.8274  
    460.0000    2700.00    63.9802  
    480.0000    2700.00    63.1736  
    500.0000    2700.00    62.4042  


      0.0000    2750.00   148.0016  
     20.0000    2750.00   123.0423  
     40.0000    2750.00   112.0251  
     60.0000    2750.00   104.5639  
     80.0000    2750.00    98.9650  
    100.0000    2750.00    94.5134  
    120.0000    2750.00    90.8343  
    140.0000    2750.00    87.7080  
    160.0000    2750.00    84.9954  
    180.0000    2750.00    82.6037  
    200.0000    2750.00    80.4677  
    220.0000    2750.00    78.5405  
    240.0000    2750.00    76.7868  
    260.0000    2750.00    75.1795  
    280.0000    2750.00    73.6976  
    300.0000    2750.00    72.3242  
    320.0000    2750.00    71.0455  
    340.0000    2750.00    69.8504  
    360.0000    2750.00    68.7295  
    380.0000    2750.00    67.6748  
    400.0000    2750.00    66.6796  
    420.0000    2750.00    65.7382  
    440.0000    2750.00    64.8455  
    460.0000    2750.00    63.9973  
    480.0000    2750.00    63.1896  
    500.0000    2750.00    62.4193  


      0.0000    2800.00   149.6298  
     20.0000    2800.00   123.2807  
     40.0000    2800.00   112.1727  
     60.0000    2800.00   104.6700  
     80.0000    2800.00    99.0474  
    100.0000    2800.00    94.5807  
    120.0000    2800.00    90.8914  
    140.0000    2800.00    87.7577  
    160.0000    2800.00    85.0396  
    180.0000    2800.00    82.6435  
    200.0000    2800.00    80.5041  
    220.0000    2800.00    78.5740  
    240.0000    2800.00    76.8178  
    260.0000    2800.00    75.2085  
    280.0000    2800.00    73.7247  
    300.0000    2800.00    72.3497  
    320.0000    2800.00    71.0696  
    340.0000    2800.00    69.8731  
    360.0000    2800.00    68.7510  
    380.0000    2800.00    67.6952  
    400.0000    2800.00    66.6991  
    420.0000    2800.00    65.7567  
    440.0000    2800.00    64.8632  
    460.0000    2800.00    64.0142  
    480.0000    2800.00    63.2059  
    500.0000    2800.00    62.4348  


      0.0000    2850.00   152.2948  
     20.0000    2850.00   123.5217  
     40.0000    2850.00   112.3213  
     60.0000    2850.00   104.7767  
     80.0000    2850.00    99.1301  
    100.0000    2850.00    94.6482  
    120.0000    2850.00    90.9486  
    140.0000    2850.00    87.8075  
    160.0000    2850.00    85.0839  
    180.0000    2850.00    82.6835  
    200.0000    2850.00    80.5406  
    220.0000    2850.00    78.6076  
    240.0000    2850.00    76.8489  
    260.0000    2850.00    75.2374  
    280.0000    2850.00    73.7518  
    300.0000    2850.00    72.3752  
    320.0000    2850.00    71.0936  
    340.0000    2850.00    69.8959  
    360.0000    2850.00    68.7726  
    380.0000    2850.00    67.7157  
    400.0000    2850.00    66.7185  
    420.0000    2850.00    65.7753  
    440.0000    2850.00    64.8810  
    460.0000    2850.00    64.0312  
    480.0000    2850.00    63.2221  
    500.0000    2850.00    62.4504  


     20.0000    2900.00   123.7655  
     40.0000    2900.00   112.4710  
     60.0000    2900.00   104.8839  
     80.0000    2900.00    99.2131  
    100.0000    2900.00    94.7160  
    120.0000    2900.00    91.0060  
    140.0000    2900.00    87.8575  
    160.0000    2900.00    85.1282  
    180.0000    2900.00    82.7235  
    200.0000    2900.00    80.5771  
    220.0000    2900.00    78.6411  
    240.0000    2900.00    76.8800  
    260.0000    2900.00    75.2665  
    280.0000    2900.00    73.7790  
    300.0000    2900.00    72.4007  
    320.0000    2900.00    71.1177  
    340.0000    2900.00    69.9187  
    360.0000    2900.00    68.7942  
    380.0000    2900.00    67.7362  
    400.0000    2900.00    66.7381  
    420.0000    2900.00    65.7939  
    440.0000    2900.00    64.8988  
    460.0000    2900.00    64.0482  
    480.0000    2900.00    63.2384  
    500.0000    2900.00    62.4661  


     20.0000    2950.00   124.0122  
     40.0000    2950.00   112.6216  
     60.0000    2950.00   104.9916  
     80.0000    2950.00    99.2964  
    100.0000    2950.00    94.7839  
    120.0000    2950.00    91.0635  
    140.0000    2950.00    87.9075  
    160.0000    2950.00    85.1727  
    180.0000    2950.00    82.7635  
    200.0000    2950.00    80.6136  
    220.0000    2950.00    78.6748  
    240.0000    2950.00    76.9112  
    260.0000    2950.00    75.2955  
    280.0000    2950.00    73.8062  
    300.0000    2950.00    72.4263  
    320.0000    2950.00    71.1418  
    340.0000    2950.00    69.9415  
    360.0000    2950.00    68.8158  
    380.0000    2950.00    67.7568  
    400.0000    2950.00    66.7576  
    420.0000    2950.00    65.8126  
    440.0000    2950.00    64.9166  
    460.0000    2950.00    64.0652  
    480.0000    2950.00    63.2548  
    500.0000    2950.00    62.4817  


     20.0000    3000.00   124.2617  
     40.0000    3000.00   112.7733  
     60.0000    3000.00   105.0998  
     80.0000    3000.00    99.3800  
    100.0000    3000.00    94.8521  
    120.0000    3000.00    91.1212  
    140.0000    3000.00    87.9576  
    160.0000    3000.00    85.2172  
    180.0000    3000.00    82.8037  
    200.0000    3000.00    80.6502  
    220.0000    3000.00    78.7085  
    240.0000    3000.00    76.9424  
    260.0000    3000.00    75.3246  
    280.0000    3000.00    73.8335  
    300.0000    3000.00    72.4519  
    320.0000    3000.00    71.1660  
    340.0000    3000.00    69.9643  
    360.0000    3000.00    68.8374  
    380.0000    3000.00    67.7773  
    400.0000    3000.00    66.7772  
    420.0000    3000.00    65.8312  
    440.0000    3000.00    64.9344  
    460.0000    3000.00    64.0823  
    480.0000    3000.00    63.2711  
    500.0000    3000.00    62.4974  

